IGOR // wavelength 1.23680A
WAVES/O wave0, wave1, sqrt_of_wave1
BEGIN
  4.50    9119   95.49
  4.51    9018   94.96
  4.52    9107   95.43
  4.53    8993   94.83
  4.54    9100   95.39
  4.55    9024   94.99
  4.56    9088   95.33
  4.57    9021   94.98
  4.58    8990   94.82
  4.59    8936   94.53
  4.60    9076   95.27
  4.61    9047   95.12
  4.62    8952   94.62
  4.63    8945   94.58
  4.64    9021   94.98
  4.65    9034   95.05
  4.66    8999   94.86
  4.67    9045   95.11
  4.68    9029   95.02
  4.69    8974   94.73
  4.70    9008   94.91
  4.71    8916   94.42
  4.72    9020   94.97
  4.73    8883   94.25
  4.74    9019   94.97
  4.75    9067   95.22
  4.76    9125   95.52
  4.77    9092   95.35
  4.78    9037   95.06
  4.79    8958   94.65
  4.80    8952   94.62
  4.81    8912   94.40
  4.82    8949   94.60
  4.83    9051   95.14
  4.84    9175   95.79
  4.85    9042   95.09
  4.86    8987   94.80
  4.87    8941   94.56
  4.88    9067   95.22
  4.89    9119   95.49
  4.90    9212   95.98
  4.91    9008   94.91
  4.92    9115   95.47
  4.93    8947   94.59
  4.94    9042   95.09
  4.95    9204   95.94
  4.96    9148   95.65
  4.97    9047   95.12
  4.98    9229   96.07
  4.99    9007   94.91
  5.00    9158   95.70
  5.01    9125   95.52
  5.02    9185   95.84
  5.03    9133   95.57
  5.04    9209   95.96
  5.05    9060   95.18
  5.06    9118   95.49
  5.07    9055   95.16
  5.08    9110   95.45
  5.09    9159   95.70
  5.10    8935   94.53
  5.11    9077   95.27
  5.12    9069   95.23
  5.13    9194   95.89
  5.14    9235   96.10
  5.15    9034   95.05
  5.16    9017   94.96
  5.17    8999   94.86
  5.18    9226   96.05
  5.19    9177   95.80
  5.20    9171   95.77
  5.21    9085   95.32
  5.22    9240   96.12
  5.23    9034   95.05
  5.24    9238   96.11
  5.25    9105   95.42
  5.26    9054   95.15
  5.27    9147   95.64
  5.28    9041   95.08
  5.29    9173   95.78
  5.30    9152   95.67
  5.31    9166   95.74
  5.32    9159   95.70
  5.33    8944   94.57
  5.34    9281   96.34
  5.35    9127   95.54
  5.36    9075   95.26
  5.37    9245   96.15
  5.38    9088   95.33
  5.39    9110   95.45
  5.40    9127   95.54
  5.41    9097   95.38
  5.42    9122   95.51
  5.43    9272   96.29
  5.44    9050   95.13
  5.45    9120   95.50
  5.46    9350   96.70
  5.47    9218   96.01
  5.48    9086   95.32
  5.49    9152   95.67
  5.50    9237   96.11
  5.51    9071   95.24
  5.52    8962   94.67
  5.53    9182   95.82
  5.54    9199   95.91
  5.55    9134   95.57
  5.56    9134   95.57
  5.57    9190   95.86
  5.58    9148   95.65
  5.59    9034   95.05
  5.60    9169   95.75
  5.61    9179   95.81
  5.62    9266   96.26
  5.63    9243   96.14
  5.64    9135   95.58
  5.65    9322   96.55
  5.66    9085   95.32
  5.67    8995   94.84
  5.68    9024   94.99
  5.69    9023   94.99
  5.70    9012   94.93
  5.71    9116   95.48
  5.72    9177   95.80
  5.73    9291   96.39
  5.74    9025   95.00
  5.75    9129   95.55
  5.76    9105   95.42
  5.77    9057   95.17
  5.78    9079   95.28
  5.79    9138   95.59
  5.80    9271   96.29
  5.81    9098   95.38
  5.82    9146   95.63
  5.83    9015   94.95
  5.84    9073   95.25
  5.85    9066   95.22
  5.86    9145   95.63
  5.87    9057   95.17
  5.88    9176   95.79
  5.89    9219   96.02
  5.90    9251   96.18
  5.91    9148   95.65
  5.92    9185   95.84
  5.93    9198   95.91
  5.94    9165   95.73
  5.95    9089   95.34
  5.96    9077   95.27
  5.97    9224   96.04
  5.98    9266   96.26
  5.99    9101   95.40
  6.00    9200   95.92
  6.01    9180   95.81
  6.02    9113   95.46
  6.03    9135   95.58
  6.04    9113   95.46
  6.05    9093   95.36
  6.06    9214   95.99
  6.07    9021   94.98
  6.08    9022   94.98
  6.09    9143   95.62
  6.10    9083   95.30
  6.11    9225   96.05
  6.12    9197   95.90
  6.13    9148   95.65
  6.14    9072   95.25
  6.15    9155   95.68
  6.16    9114   95.47
  6.17    9106   95.43
  6.18    9196   95.90
  6.19    9145   95.63
  6.20    9061   95.19
  6.21    9128   95.54
  6.22    9062   95.19
  6.23    9015   94.95
  6.24    9143   95.62
  6.25    9206   95.95
  6.26    9172   95.77
  6.27    9113   95.46
  6.28    9173   95.78
  6.29    9195   95.89
  6.30    9116   95.48
  6.31    9159   95.70
  6.32    9277   96.32
  6.33    9165   95.73
  6.34    9267   96.27
  6.35    9155   95.68
  6.36    8963   94.67
  6.37    9006   94.90
  6.38    9037   95.06
  6.39    9274   96.30
  6.40    9163   95.72
  6.41    9139   95.60
  6.42    9293   96.40
  6.43    9221   96.03
  6.44    9277   96.32
  6.45    9210   95.97
  6.46    9198   95.91
  6.47    9290   96.38
  6.48    9291   96.39
  6.49    9321   96.55
  6.50    9384   96.87
  6.51    9368   96.79
  6.52    9440   97.16
  6.53    9303   96.45
  6.54    9415   97.03
  6.55    9414   97.03
  6.56    9448   97.20
  6.57    9346   96.67
  6.58    9367   96.78
  6.59    9501   97.47
  6.60    9471   97.32
  6.61    9490   97.42
  6.62    9548   97.71
  6.63    9467   97.30
  6.64    9652   98.24
  6.65    9898   99.49
  6.66    9842   99.21
  6.67    9915   99.57
  6.68   10089  100.44
  6.69   10387  101.92
  6.70   10634  103.12
  6.71   11050  105.12
  6.72   11770  108.49
  6.73   13008  114.05
  6.74   15066  122.74
  6.75   19091  138.17
  6.76   25586  159.96
  6.77   35551  188.55
  6.78   49093  221.57
  6.79   61669  248.33
  6.80   69312  263.27
  6.81   66122  257.14
  6.82   53865  232.09
  6.83   39113  197.77
  6.84   26493  162.77
  6.85   18494  135.99
  6.86   14499  120.41
  6.87   12309  110.95
  6.88   11026  105.00
  6.89   10597  102.94
  6.90   10402  101.99
  6.91    9923   99.61
  6.92    9775   98.87
  6.93    9720   98.59
  6.94    9744   98.71
  6.95    9571   97.83
  6.96    9536   97.65
  6.97    9427   97.09
  6.98    9476   97.34
  6.99    9458   97.25
  7.00    9341   96.65
  7.01    9276   96.31
  7.02    9276   96.31
  7.03    9198   95.91
  7.04    9249   96.17
  7.05    9341   96.65
  7.06    9198   95.91
  7.07    9365   96.77
  7.08    9272   96.29
  7.09    9392   96.91
  7.10    9297   96.42
  7.11    9244   96.15
  7.12    9209   95.96
  7.13    9306   96.47
  7.14    9206   95.95
  7.15    9417   97.04
  7.16    9436   97.14
  7.17    9217   96.01
  7.18    9152   95.67
  7.19    9242   96.14
  7.20    9136   95.58
  7.21    9270   96.28
  7.22    9166   95.74
  7.23    9263   96.24
  7.24    9332   96.60
  7.25    9167   95.74
  7.26    9247   96.16
  7.27    9198   95.91
  7.28    9269   96.28
  7.29    9245   96.15
  7.30    9195   95.89
  7.31    9303   96.45
  7.32    9232   96.08
  7.33    9220   96.02
  7.34    9308   96.48
  7.35    9202   95.93
  7.36    9232   96.08
  7.37    9338   96.63
  7.38    9261   96.23
  7.39    9241   96.13
  7.40    9127   95.54
  7.41    9160   95.71
  7.42    9182   95.82
  7.43    9175   95.79
  7.44    9352   96.71
  7.45    9313   96.50
  7.46    9255   96.20
  7.47    9166   95.74
  7.48    9202   95.93
  7.49    9178   95.80
  7.50    9195   95.89
  7.51    9272   96.29
  7.52    9209   95.96
  7.53    9315   96.51
  7.54    9298   96.43
  7.55    9325   96.57
  7.56    9379   96.85
  7.57    9252   96.19
  7.58    9242   96.14
  7.59    9287   96.37
  7.60    9259   96.22
  7.61    9166   95.74
  7.62    9274   96.30
  7.63    9256   96.21
  7.64    9239   96.12
  7.65    9348   96.69
  7.66    9254   96.20
  7.67    9186   95.84
  7.68    9308   96.48
  7.69    9289   96.38
  7.70    9309   96.48
  7.71    9224   96.04
  7.72    9301   96.44
  7.73    9141   95.61
  7.74    9201   95.92
  7.75    9127   95.54
  7.76    9115   95.47
  7.77    9047   95.12
  7.78    9148   95.65
  7.79    9178   95.80
  7.80    9293   96.40
  7.81    9142   95.61
  7.82    9255   96.20
  7.83    9324   96.56
  7.84    9260   96.23
  7.85    9252   96.19
  7.86    9264   96.25
  7.87    9189   95.86
  7.88    9215   95.99
  7.89    9208   95.96
  7.90    9187   95.85
  7.91    9188   95.85
  7.92    9335   96.62
  7.93    9190   95.86
  7.94    9192   95.87
  7.95    9244   96.15
  7.96    9228   96.06
  7.97    9274   96.30
  7.98    9214   95.99
  7.99    9258   96.22
  8.00    9258   96.22
  8.01    9260   96.23
  8.02    9149   95.65
  8.03    9293   96.40
  8.04    9335   96.62
  8.05    9210   95.97
  8.06    9038   95.07
  8.07    9243   96.14
  8.08    9179   95.81
  8.09    9219   96.02
  8.10    9188   95.85
  8.11    9275   96.31
  8.12    9321   96.55
  8.13    9187   95.85
  8.14    9214   95.99
  8.15    9160   95.71
  8.16    9114   95.47
  8.17    9128   95.54
  8.18    9323   96.56
  8.19    9301   96.44
  8.20    9316   96.52
  8.21    9253   96.19
  8.22    9114   95.47
  8.23    9303   96.45
  8.24    9216   96.00
  8.25    9121   95.50
  8.26    9142   95.61
  8.27    9209   95.96
  8.28    9300   96.44
  8.29    9253   96.19
  8.30    9254   96.20
  8.31    9267   96.27
  8.32    9093   95.36
  8.33    9265   96.25
  8.34    9227   96.06
  8.35    9207   95.95
  8.36    9330   96.59
  8.37    9260   96.23
  8.38    9154   95.68
  8.39    9198   95.91
  8.40    9202   95.93
  8.41    9160   95.71
  8.42    9185   95.84
  8.43    9191   95.87
  8.44    9154   95.68
  8.45    9150   95.66
  8.46    9263   96.24
  8.47    9327   96.58
  8.48    9040   95.08
  8.49    9259   96.22
  8.50    9260   96.23
  8.51    9362   96.76
  8.52    9281   96.34
  8.53    9243   96.14
  8.54    9137   95.59
  8.55    9271   96.29
  8.56    9293   96.40
  8.57    9229   96.07
  8.58    9269   96.28
  8.59    9191   95.87
  8.60    9171   95.77
  8.61    9350   96.70
  8.62    9287   96.37
  8.63    9227   96.06
  8.64    9409   97.00
  8.65    9190   95.86
  8.66    9201   95.92
  8.67    9147   95.64
  8.68    9207   95.95
  8.69    9259   96.22
  8.70    9283   96.35
  8.71    9235   96.10
  8.72    9284   96.35
  8.73    9233   96.09
  8.74    9209   95.96
  8.75    9230   96.07
  8.76    9212   95.98
  8.77    9160   95.71
  8.78    9331   96.60
  8.79    9366   96.78
  8.80    9331   96.60
  8.81    9162   95.72
  8.82    9302   96.45
  8.83    9318   96.53
  8.84    9179   95.81
  8.85    9255   96.20
  8.86    9286   96.36
  8.87    9269   96.28
  8.88    9264   96.25
  8.89    9155   95.68
  8.90    9240   96.12
  8.91    9345   96.67
  8.92    9317   96.52
  8.93    9379   96.85
  8.94    9416   97.04
  8.95    9225   96.05
  8.96    9339   96.64
  8.97    9351   96.70
  8.98    9407   96.99
  8.99    9276   96.31
  9.00    9407   96.99
  9.01    9405   96.98
  9.02    9327   96.58
  9.03    9444   97.18
  9.04    9460   97.26
  9.05    9344   96.66
  9.06    9406   96.98
  9.07    9279   96.33
  9.08    9342   96.65
  9.09    9518   97.56
  9.10    9526   97.60
  9.11    9487   97.40
  9.12    9433   97.12
  9.13    9570   97.83
  9.14    9477   97.35
  9.15    9561   97.78
  9.16    9677   98.37
  9.17    9527   97.61
  9.18    9697   98.47
  9.19    9485   97.39
  9.20    9611   98.04
  9.21    9757   98.78
  9.22    9646   98.21
  9.23    9690   98.44
  9.24    9677   98.37
  9.25    9664   98.31
  9.26    9586   97.91
  9.27    9723   98.61
  9.28    9800   98.99
  9.29    9620   98.08
  9.30    9784   98.91
  9.31    9943   99.71
  9.32    9831   99.15
  9.33    9991   99.95
  9.34   10030  100.15
  9.35   10211  101.05
  9.36   10222  101.10
  9.37   10362  101.79
  9.38   10372  101.84
  9.39   10520  102.57
  9.40   10774  103.80
  9.41   10919  104.49
  9.42   11140  105.55
  9.43   11347  106.52
  9.44   11785  108.56
  9.45   12379  111.26
  9.46   13016  114.09
  9.47   13866  117.75
  9.48   15139  123.04
  9.49   17231  131.27
  9.50   20281  142.41
  9.51   25239  158.87
  9.52   33833  183.94
  9.53   47201  217.26
  9.54   67758  260.30
  9.55   94703  307.74
  9.56  124019  352.16
  9.57  141633  376.34
  9.58  138499  372.15
  9.59  117099  342.20
  9.60   94822  307.93
  9.61   83895  289.65
  9.62   93866  306.38
  9.63  125661  354.49
  9.64  172783  415.67
  9.65  209180  457.36
  9.66  208786  456.93
  9.67  167820  409.66
  9.68  114071  337.74
  9.69   67959  260.69
  9.70   40097  200.24
  9.71   25499  159.68
  9.72   18830  137.22
  9.73   15517  124.57
  9.74   13480  116.10
  9.75   12260  110.72
  9.76   11369  106.63
  9.77   10891  104.36
  9.78   10694  103.41
  9.79   10268  101.33
  9.80   10008  100.04
  9.81    9926   99.63
  9.82    9787   98.93
  9.83    9859   99.29
  9.84    9754   98.76
  9.85    9543   97.69
  9.86    9311   96.49
  9.87    9333   96.61
  9.88    9213   95.98
  9.89    9165   95.73
  9.90    9294   96.41
  9.91    9227   96.06
  9.92    9210   95.97
  9.93    9369   96.79
  9.94    9488   97.41
  9.95    9241   96.13
  9.96    9133   95.57
  9.97    9279   96.33
  9.98    9083   95.30
  9.99    9185   95.84
 10.00    9014   94.94
 10.01    9151   95.66
 10.02    9093   95.36
 10.03    9179   95.81
 10.04    9106   95.43
 10.05    9316   96.52
 10.06    9079   95.28
 10.07    8963   94.67
 10.08    8913   94.41
 10.09    9042   95.09
 10.10    8925   94.47
 10.11    8875   94.21
 10.12    8889   94.28
 10.13    8967   94.69
 10.14    8949   94.60
 10.15    8835   93.99
 10.16    8734   93.46
 10.17    8868   94.17
 10.18    8881   94.24
 10.19    8988   94.81
 10.20    8814   93.88
 10.21    8976   94.74
 10.22    8845   94.05
 10.23    8807   93.85
 10.24    8876   94.21
 10.25    8779   93.70
 10.26    8863   94.14
 10.27    8714   93.35
 10.28    8892   94.30
 10.29    8889   94.28
 10.30    8859   94.12
 10.31    8902   94.35
 10.32    8925   94.47
 10.33    8858   94.12
 10.34    8884   94.25
 10.35    8731   93.44
 10.36    8809   93.86
 10.37    8767   93.63
 10.38    8800   93.81
 10.39    8773   93.66
 10.40    9106   95.43
 10.41    8965   94.68
 10.42    8833   93.98
 10.43    8754   93.56
 10.44    8826   93.95
 10.45    8656   93.04
 10.46    8874   94.20
 10.47    8878   94.22
 10.48    8941   94.56
 10.49    9007   94.91
 10.50    8903   94.36
 10.51    8887   94.27
 10.52    8866   94.16
 10.53    8887   94.27
 10.54    9027   95.01
 10.55    9247   96.16
 10.56    9409   97.00
 10.57    9518   97.56
 10.58    9673   98.35
 10.59    9578   97.87
 10.60    9624   98.10
 10.61    9704   98.51
 10.62    9530   97.62
 10.63    9667   98.32
 10.64    9871   99.35
 10.65   10314  101.56
 10.66   11105  105.38
 10.67   12209  110.49
 10.68   13537  116.35
 10.69   14412  120.05
 10.70   14509  120.45
 10.71   13490  116.15
 10.72   12071  109.87
 10.73   10658  103.24
 10.74    9980   99.90
 10.75    9454   97.23
 10.76    9230   96.07
 10.77    9022   94.98
 10.78    8953   94.62
 10.79    8789   93.75
 10.80    8845   94.05
 10.81    8755   93.57
 10.82    8589   92.68
 10.83    8651   93.01
 10.84    8753   93.56
 10.85    8647   92.99
 10.86    8716   93.36
 10.87    8653   93.02
 10.88    8604   92.76
 10.89    8637   92.94
 10.90    8616   92.82
 10.91    8699   93.27
 10.92    8622   92.85
 10.93    8620   92.84
 10.94    8583   92.64
 10.95    8560   92.52
 10.96    8649   93.00
 10.97    8647   92.99
 10.98    8538   92.40
 10.99    8610   92.79
 11.00    8667   93.10
 11.01    8660   93.06
 11.02    8554   92.49
 11.03    8700   93.27
 11.04    8598   92.73
 11.05    8696   93.25
 11.06    8684   93.19
 11.07    8736   93.47
 11.08    8538   92.40
 11.09    8420   91.76
 11.10    8598   92.73
 11.11    8585   92.66
 11.12    8696   93.25
 11.13    8706   93.31
 11.14    8726   93.41
 11.15    8630   92.90
 11.16    8711   93.33
 11.17    8606   92.77
 11.18    8630   92.90
 11.19    8644   92.97
 11.20    8525   92.33
 11.21    8470   92.03
 11.22    8574   92.60
 11.23    8570   92.57
 11.24    8502   92.21
 11.25    8660   93.06
 11.26    8721   93.39
 11.27    8733   93.45
 11.28    8660   93.06
 11.29    8597   92.72
 11.30    8523   92.32
 11.31    8484   92.11
 11.32    8359   91.43
 11.33    8411   91.71
 11.34    8447   91.91
 11.35    8478   92.08
 11.36    8429   91.81
 11.37    8626   92.88
 11.38    8681   93.17
 11.39    8490   92.14
 11.40    8521   92.31
 11.41    8435   91.84
 11.42    8383   91.56
 11.43    8537   92.40
 11.44    8557   92.50
 11.45    8471   92.04
 11.46    8495   92.17
 11.47    8613   92.81
 11.48    8566   92.55
 11.49    8508   92.24
 11.50    8467   92.02
 11.51    8475   92.06
 11.52    8582   92.64
 11.53    8578   92.62
 11.54    8521   92.31
 11.55    8560   92.52
 11.56    8545   92.44
 11.57    8650   93.01
 11.58    8656   93.04
 11.59    8585   92.66
 11.60    8496   92.17
 11.61    8464   92.00
 11.62    8600   92.74
 11.63    8570   92.57
 11.64    8606   92.77
 11.65    8540   92.41
 11.66    8536   92.39
 11.67    8669   93.11
 11.68    8711   93.33
 11.69    8623   92.86
 11.70    8634   92.92
 11.71    8536   92.39
 11.72    8530   92.36
 11.73    8575   92.60
 11.74    8516   92.28
 11.75    8576   92.61
 11.76    8566   92.55
 11.77    8772   93.66
 11.78    8742   93.50
 11.79    8719   93.38
 11.80    8692   93.23
 11.81    8743   93.50
 11.82    8578   92.62
 11.83    8603   92.75
 11.84    8544   92.43
 11.85    8859   94.12
 11.86    8706   93.31
 11.87    8685   93.19
 11.88    8686   93.20
 11.89    8777   93.69
 11.90    8832   93.98
 11.91    8910   94.39
 11.92    9223   96.04
 11.93    9154   95.68
 11.94    9274   96.30
 11.95    9280   96.33
 11.96    9194   95.89
 11.97    9082   95.30
 11.98    8911   94.40
 11.99    8821   93.92
 12.00    8865   94.15
 12.01    8763   93.61
 12.02    8829   93.96
 12.03    8727   93.42
 12.04    8789   93.75
 12.05    8712   93.34
 12.06    8778   93.69
 12.07    8620   92.84
 12.08    8595   92.71
 12.09    8676   93.15
 12.10    8635   92.92
 12.11    8648   92.99
 12.12    8819   93.91
 12.13    8642   92.96
 12.14    8637   92.94
 12.15    8694   93.24
 12.16    8601   92.74
 12.17    8773   93.66
 12.18    8639   92.95
 12.19    8702   93.28
 12.20    8613   92.81
 12.21    8613   92.81
 12.22    8650   93.01
 12.23    8811   93.87
 12.24    8632   92.91
 12.25    8680   93.17
 12.26    8641   92.96
 12.27    8684   93.19
 12.28    8664   93.08
 12.29    8752   93.55
 12.30    8798   93.80
 12.31    8634   92.92
 12.32    8691   93.23
 12.33    8647   92.99
 12.34    8667   93.10
 12.35    8667   93.10
 12.36    8830   93.97
 12.37    8627   92.88
 12.38    8658   93.05
 12.39    8577   92.61
 12.40    8863   94.14
 12.41    8643   92.97
 12.42    8838   94.01
 12.43    8634   92.92
 12.44    8611   92.80
 12.45    8623   92.86
 12.46    8647   92.99
 12.47    8719   93.38
 12.48    8644   92.97
 12.49    8586   92.66
 12.50    8672   93.12
 12.51    8796   93.79
 12.52    8675   93.14
 12.53    8530   92.36
 12.54    8616   92.82
 12.55    8708   93.32
 12.56    8595   92.71
 12.57    8729   93.43
 12.58    8588   92.67
 12.59    8640   92.95
 12.60    8650   93.01
 12.61    8685   93.19
 12.62    8739   93.48
 12.63    8757   93.58
 12.64    8641   92.96
 12.65    8804   93.83
 12.66    8592   92.69
 12.67    8683   93.18
 12.68    8654   93.03
 12.69    8703   93.29
 12.70    8672   93.12
 12.71    8747   93.53
 12.72    8782   93.71
 12.73    8705   93.30
 12.74    8933   94.51
 12.75    8717   93.36
 12.76    8789   93.75
 12.77    8854   94.10
 12.78    8794   93.78
 12.79    8729   93.43
 12.80    8805   93.83
 12.81    8855   94.10
 12.82    8857   94.11
 12.83    8853   94.09
 12.84    8856   94.11
 12.85    8956   94.64
 12.86    8803   93.82
 12.87    8766   93.63
 12.88    8825   93.94
 12.89    8979   94.76
 12.90    8825   93.94
 12.91    8814   93.88
 12.92    8795   93.78
 12.93    9019   94.97
 12.94    9086   95.32
 12.95    8987   94.80
 12.96    9021   94.98
 12.97    8853   94.09
 12.98    8830   93.97
 12.99    8949   94.60
 13.00    8769   93.64
 13.01    8888   94.28
 13.02    8908   94.38
 13.03    8964   94.68
 13.04    8874   94.20
 13.05    8935   94.53
 13.06    8934   94.52
 13.07    8814   93.88
 13.08    8806   93.84
 13.09    8858   94.12
 13.10    8859   94.12
 13.11    9070   95.24
 13.12    9133   95.57
 13.13    8971   94.72
 13.14    8965   94.68
 13.15    8908   94.38
 13.16    8950   94.60
 13.17    8824   93.94
 13.18    8910   94.39
 13.19    9051   95.14
 13.20    9001   94.87
 13.21    9105   95.42
 13.22    9070   95.24
 13.23    9011   94.93
 13.24    9240   96.12
 13.25    9011   94.93
 13.26    9172   95.77
 13.27    9275   96.31
 13.28    9236   96.10
 13.29    9253   96.19
 13.30    9341   96.65
 13.31    9473   97.33
 13.32    9556   97.75
 13.33    9746   98.72
 13.34    9792   98.95
 13.35   10020  100.10
 13.36   10143  100.71
 13.37   10208  101.03
 13.38   10314  101.56
 13.39   10275  101.37
 13.40   10240  101.19
 13.41   10203  101.01
 13.42   10065  100.32
 13.43   10095  100.47
 13.44    9930   99.65
 13.45    9870   99.35
 13.46   10184  100.92
 13.47   10280  101.39
 13.48   10609  103.00
 13.49   10988  104.82
 13.50   11283  106.22
 13.51   12071  109.87
 13.52   12991  113.98
 13.53   14604  120.85
 13.54   17584  132.60
 13.55   22136  148.78
 13.56   29259  171.05
 13.57   39353  198.38
 13.58   51814  227.63
 13.59   63824  252.63
 13.60   70047  264.66
 13.61   69941  264.46
 13.62   64913  254.78
 13.63   56307  237.29
 13.64   46459  215.54
 13.65   36509  191.07
 13.66   28096  167.62
 13.67   21534  146.74
 13.68   17248  131.33
 13.69   14534  120.56
 13.70   12810  113.18
 13.71   11875  108.97
 13.72   11245  106.04
 13.73   10793  103.89
 13.74   10263  101.31
 13.75   10019  100.09
 13.76    9960   99.80
 13.77    9830   99.15
 13.78    9824   99.12
 13.79    9537   97.66
 13.80    9441   97.16
 13.81    9502   97.48
 13.82    9392   96.91
 13.83    9582   97.89
 13.84    9345   96.67
 13.85    9403   96.97
 13.86    9297   96.42
 13.87    9165   95.73
 13.88    9412   97.02
 13.89    9447   97.20
 13.90    9414   97.03
 13.91    9338   96.63
 13.92    9413   97.02
 13.93    9340   96.64
 13.94    9250   96.18
 13.95    9295   96.41
 13.96    9301   96.44
 13.97    9432   97.12
 13.98    9403   96.97
 13.99    9390   96.90
 14.00    9313   96.50
 14.01    9428   97.10
 14.02    9354   96.72
 14.03    9370   96.80
 14.04    9484   97.39
 14.05    9405   96.98
 14.06    9472   97.32
 14.07    9524   97.59
 14.08    9622   98.09
 14.09    9531   97.63
 14.10    9745   98.72
 14.11    9779   98.89
 14.12    9909   99.54
 14.13    9985   99.92
 14.14   10127  100.63
 14.15   10280  101.39
 14.16   10664  103.27
 14.17   10883  104.32
 14.18   11413  106.83
 14.19   12212  110.51
 14.20   13282  115.25
 14.21   14850  121.86
 14.22   16576  128.75
 14.23   18762  136.97
 14.24   20866  144.45
 14.25   22207  149.02
 14.26   22160  148.86
 14.27   20320  142.55
 14.28   18140  134.68
 14.29   16026  126.59
 14.30   14173  119.05
 14.31   12788  113.08
 14.32   12031  109.69
 14.33   11269  106.16
 14.34   10899  104.40
 14.35   10656  103.23
 14.36   10379  101.88
 14.37   10297  101.47
 14.38   10088  100.44
 14.39   10105  100.52
 14.40   10158  100.79
 14.41   10034  100.17
 14.42   10333  101.65
 14.43   10351  101.74
 14.44   10690  103.39
 14.45   10941  104.60
 14.46   11189  105.78
 14.47   11832  108.77
 14.48   12252  110.69
 14.49   12277  110.80
 14.50   12143  110.20
 14.51   12023  109.65
 14.52   11540  107.42
 14.53   10991  104.84
 14.54   10620  103.05
 14.55   10316  101.57
 14.56   10143  100.71
 14.57   10093  100.46
 14.58   10071  100.35
 14.59    9895   99.47
 14.60    9785   98.92
 14.61    9849   99.24
 14.62    9830   99.15
 14.63    9895   99.47
 14.64    9912   99.56
 14.65    9905   99.52
 14.66   10002  100.01
 14.67    9961   99.80
 14.68   10016  100.08
 14.69   10066  100.33
 14.70    9888   99.44
 14.71    9961   99.80
 14.72    9970   99.85
 14.73   10054  100.27
 14.74    9969   99.84
 14.75   10013  100.06
 14.76   10171  100.85
 14.77   10010  100.05
 14.78   10049  100.24
 14.79    9944   99.72
 14.80   10092  100.46
 14.81    9959   99.79
 14.82   10225  101.12
 14.83   10181  100.90
 14.84   10149  100.74
 14.85   10082  100.41
 14.86   10234  101.16
 14.87   10195  100.97
 14.88   10307  101.52
 14.89   10322  101.60
 14.90   10539  102.66
 14.91   10525  102.59
 14.92   10510  102.52
 14.93   10607  102.99
 14.94   10744  103.65
 14.95   10653  103.21
 14.96   10833  104.08
 14.97   10969  104.73
 14.98   11030  105.02
 14.99   11157  105.63
 15.00   11467  107.08
 15.01   11637  107.87
 15.02   12006  109.57
 15.03   12509  111.84
 15.04   12927  113.70
 15.05   13666  116.90
 15.06   14824  121.75
 15.07   16145  127.06
 15.08   17910  133.83
 15.09   20439  142.97
 15.10   24774  157.40
 15.11   30653  175.08
 15.12   39651  199.13
 15.13   51571  227.09
 15.14   67976  260.72
 15.15   86512  294.13
 15.16  101621  318.78
 15.17  109136  330.36
 15.18  104434  323.16
 15.19   89717  299.53
 15.20   71937  268.21
 15.21   56281  237.24
 15.22   46077  214.66
 15.23   42590  206.37
 15.24   47191  217.23
 15.25   58393  241.65
 15.26   74951  273.77
 15.27   89177  298.63
 15.28   90955  301.59
 15.29   78396  279.99
 15.30   59567  244.06
 15.31   41308  203.24
 15.32   28201  167.93
 15.33   21034  145.03
 15.34   16965  130.25
 15.35   14771  121.54
 15.36   13314  115.39
 15.37   12608  112.29
 15.38   11967  109.39
 15.39   11688  108.11
 15.40   11527  107.36
 15.41   11308  106.34
 15.42   11458  107.04
 15.43   11390  106.72
 15.44   11460  107.05
 15.45   11530  107.38
 15.46   11522  107.34
 15.47   11379  106.67
 15.48   11348  106.53
 15.49   11280  106.21
 15.50   10911  104.46
 15.51   10808  103.96
 15.52   10908  104.44
 15.53   10706  103.47
 15.54   10623  103.07
 15.55   10653  103.21
 15.56   10633  103.12
 15.57   10543  102.68
 15.58   10559  102.76
 15.59   10404  102.00
 15.60   10362  101.79
 15.61   10221  101.10
 15.62   10163  100.81
 15.63   10373  101.85
 15.64   10336  101.67
 15.65   10352  101.74
 15.66   10440  102.18
 15.67   10397  101.97
 15.68   10453  102.24
 15.69   10503  102.48
 15.70   10273  101.36
 15.71   10179  100.89
 15.72   10318  101.58
 15.73   10210  101.04
 15.74   10142  100.71
 15.75   10232  101.15
 15.76   10281  101.40
 15.77   10257  101.28
 15.78   10401  101.99
 15.79   10189  100.94
 15.80   10283  101.41
 15.81   10251  101.25
 15.82   10326  101.62
 15.83   10314  101.56
 15.84   10253  101.26
 15.85   10246  101.22
 15.86   10392  101.94
 15.87   10436  102.16
 15.88   10393  101.95
 15.89   10402  101.99
 15.90   10350  101.73
 15.91   10529  102.61
 15.92   10465  102.30
 15.93   10338  101.68
 15.94   10480  102.37
 15.95   10397  101.97
 15.96   10385  101.91
 15.97   10388  101.92
 15.98   10461  102.28
 15.99   10567  102.80
 16.00   10519  102.56
 16.01   10572  102.82
 16.02   10579  102.85
 16.03   10597  102.94
 16.04   10744  103.65
 16.05   10717  103.52
 16.06   10810  103.97
 16.07   10889  104.35
 16.08   11099  105.35
 16.09   11232  105.98
 16.10   11409  106.81
 16.11   11793  108.60
 16.12   11831  108.77
 16.13   11959  109.36
 16.14   12154  110.25
 16.15   12080  109.91
 16.16   12082  109.92
 16.17   12461  111.63
 16.18   12523  111.91
 16.19   12817  113.21
 16.20   13010  114.06
 16.21   13805  117.49
 16.22   14499  120.41
 16.23   15293  123.66
 16.24   15811  125.74
 16.25   16025  126.59
 16.26   16205  127.30
 16.27   15585  124.84
 16.28   14963  122.32
 16.29   14513  120.47
 16.30   14019  118.40
 16.31   13563  116.46
 16.32   13408  115.79
 16.33   13315  115.39
 16.34   13444  115.95
 16.35   13885  117.83
 16.36   14368  119.87
 16.37   14960  122.31
 16.38   16078  126.80
 16.39   17222  131.23
 16.40   18273  135.18
 16.41   19782  140.65
 16.42   20480  143.11
 16.43   20562  143.39
 16.44   20088  141.73
 16.45   18998  137.83
 16.46   17398  131.90
 16.47   16408  128.09
 16.48   15813  125.75
 16.49   15357  123.92
 16.50   15445  124.28
 16.51   15910  126.13
 16.52   16674  129.13
 16.53   17542  132.45
 16.54   18341  135.43
 16.55   19308  138.95
 16.56   19658  140.21
 16.57   19045  138.00
 16.58   17946  133.96
 16.59   16592  128.81
 16.60   15396  124.08
 16.61   14234  119.31
 16.62   13394  115.73
 16.63   12634  112.40
 16.64   12308  110.94
 16.65   11932  109.23
 16.66   11782  108.54
 16.67   11406  106.80
 16.68   11388  106.71
 16.69   11146  105.57
 16.70   11174  105.71
 16.71   11130  105.50
 16.72   11026  105.00
 16.73   10860  104.21
 16.74   11088  105.30
 16.75   10902  104.41
 16.76   11072  105.22
 16.77   11066  105.20
 16.78   10990  104.83
 16.79   10759  103.73
 16.80   10688  103.38
 16.81   10755  103.71
 16.82   10774  103.80
 16.83   10721  103.54
 16.84   10746  103.66
 16.85   10797  103.91
 16.86   10789  103.87
 16.87   10866  104.24
 16.88   10738  103.62
 16.89   10799  103.92
 16.90   10759  103.73
 16.91   10755  103.71
 16.92   10601  102.96
 16.93   10744  103.65
 16.94   10586  102.89
 16.95   10498  102.46
 16.96   10596  102.94
 16.97   10679  103.34
 16.98   10736  103.61
 16.99   10920  104.50
 17.00   10684  103.36
 17.01   10748  103.67
 17.02   10829  104.06
 17.03   10678  103.33
 17.04   10666  103.28
 17.05   10525  102.59
 17.06   10597  102.94
 17.07   11037  105.06
 17.08   10649  103.19
 17.09   10731  103.59
 17.10   10944  104.61
 17.11   10706  103.47
 17.12   10821  104.02
 17.13   10816  104.00
 17.14   10837  104.10
 17.15   10649  103.19
 17.16   10619  103.05
 17.17   10500  102.47
 17.18   10481  102.38
 17.19   10521  102.57
 17.20   10620  103.05
 17.21   10663  103.26
 17.22   10893  104.37
 17.23   10727  103.57
 17.24   10741  103.64
 17.25   10775  103.80
 17.26   10728  103.58
 17.27   10720  103.54
 17.28   10554  102.73
 17.29   10515  102.54
 17.30   10578  102.85
 17.31   10666  103.28
 17.32   10776  103.81
 17.33   10575  102.83
 17.34   10638  103.14
 17.35   10644  103.17
 17.36   10697  103.43
 17.37   10471  102.33
 17.38   10658  103.24
 17.39   10699  103.44
 17.40   10774  103.80
 17.41   10686  103.37
 17.42   10608  103.00
 17.43   10691  103.40
 17.44   10759  103.73
 17.45   10913  104.47
 17.46   10765  103.75
 17.47   10608  103.00
 17.48   10773  103.79
 17.49   10647  103.18
 17.50   10691  103.40
 17.51   10711  103.49
 17.52   10745  103.66
 17.53   10766  103.76
 17.54   10730  103.59
 17.55   10873  104.27
 17.56   10773  103.79
 17.57   10542  102.67
 17.58   10646  103.18
 17.59   10542  102.67
 17.60   10481  102.38
 17.61   10776  103.81
 17.62   10683  103.36
 17.63   10594  102.93
 17.64   10595  102.93
 17.65   10593  102.92
 17.66   10639  103.15
 17.67   10526  102.60
 17.68   10712  103.50
 17.69   10620  103.05
 17.70   10652  103.21
 17.71   10784  103.85
 17.72   10603  102.97
 17.73   10717  103.52
 17.74   10598  102.95
 17.75   10570  102.81
 17.76   10693  103.41
 17.77   10514  102.54
 17.78   10533  102.63
 17.79   10632  103.11
 17.80   10502  102.48
 17.81   10651  103.20
 17.82   10758  103.72
 17.83   10689  103.39
 17.84   10645  103.17
 17.85   10714  103.51
 17.86   10695  103.42
 17.87   10519  102.56
 17.88   10676  103.32
 17.89   10670  103.30
 17.90   10492  102.43
 17.91   10505  102.49
 17.92   10447  102.21
 17.93   10464  102.29
 17.94   10422  102.09
 17.95   10380  101.88
 17.96   10549  102.71
 17.97   10654  103.22
 17.98   10530  102.62
 17.99   10483  102.39
 18.00   10666  103.28
 18.01   10474  102.34
 18.02   10532  102.63
 18.03   10530  102.62
 18.04   10551  102.72
 18.05   10542  102.67
 18.06   10696  103.42
 18.07   10573  102.83
 18.08   10518  102.56
 18.09   10771  103.78
 18.10   10742  103.64
 18.11   10680  103.34
 18.12   10803  103.94
 18.13   10569  102.81
 18.14   10858  104.20
 18.15   10901  104.41
 18.16   10878  104.30
 18.17   10760  103.73
 18.18   10751  103.69
 18.19   10999  104.88
 18.20   10997  104.87
 18.21   11256  106.09
 18.22   11239  106.01
 18.23   11070  105.21
 18.24   11478  107.14
 18.25   11400  106.77
 18.26   11630  107.84
 18.27   11806  108.66
 18.28   12076  109.89
 18.29   12335  111.06
 18.30   12932  113.72
 18.31   13559  116.44
 18.32   13966  118.18
 18.33   14542  120.59
 18.34   15357  123.92
 18.35   15828  125.81
 18.36   16339  127.82
 18.37   16222  127.37
 18.38   16141  127.05
 18.39   15549  124.70
 18.40   14947  122.26
 18.41   14300  119.58
 18.42   13439  115.93
 18.43   12879  113.49
 18.44   12284  110.83
 18.45   12021  109.64
 18.46   11731  108.31
 18.47   11485  107.17
 18.48   11345  106.51
 18.49   11202  105.84
 18.50   10991  104.84
 18.51   10972  104.75
 18.52   10723  103.55
 18.53   10729  103.58
 18.54   10815  104.00
 18.55   10619  103.05
 18.56   10509  102.51
 18.57   10518  102.56
 18.58   10569  102.81
 18.59   10520  102.57
 18.60   10435  102.15
 18.61   10337  101.67
 18.62   10291  101.44
 18.63   10585  102.88
 18.64   10500  102.47
 18.65   10494  102.44
 18.66   10432  102.14
 18.67   10570  102.81
 18.68   10807  103.96
 18.69   10987  104.82
 18.70   11057  105.15
 18.71   11254  106.08
 18.72   11254  106.08
 18.73   11179  105.73
 18.74   10885  104.33
 18.75   10846  104.14
 18.76   10730  103.59
 18.77   10470  102.32
 18.78   10538  102.65
 18.79   10390  101.93
 18.80   10341  101.69
 18.81   10160  100.80
 18.82   10224  101.11
 18.83   10220  101.09
 18.84   10226  101.12
 18.85   10209  101.04
 18.86   10074  100.37
 18.87   10141  100.70
 18.88   10234  101.16
 18.89   10115  100.57
 18.90   10171  100.85
 18.91   10047  100.23
 18.92   10023  100.11
 18.93   10183  100.91
 18.94   10194  100.97
 18.95   10074  100.37
 18.96   10168  100.84
 18.97   10094  100.47
 18.98   10257  101.28
 18.99   10211  101.05
 19.00   10220  101.09
 19.01   10274  101.36
 19.02   10163  100.81
 19.03   10176  100.88
 19.04   10347  101.72
 19.05   10245  101.22
 19.06   10173  100.86
 19.07   10112  100.56
 19.08   10087  100.43
 19.09   10187  100.93
 19.10   10122  100.61
 19.11   10229  101.14
 19.12   10438  102.17
 19.13   10542  102.67
 19.14   10488  102.41
 19.15   10468  102.31
 19.16   10940  104.59
 19.17   11192  105.79
 19.18   11676  108.06
 19.19   12037  109.71
 19.20   12724  112.80
 19.21   13454  115.99
 19.22   13784  117.41
 19.23   13861  117.73
 19.24   13636  116.77
 19.25   13002  114.03
 19.26   12476  111.70
 19.27   11738  108.34
 19.28   11567  107.55
 19.29   11594  107.68
 19.30   11466  107.08
 19.31   11867  108.94
 19.32   12490  111.76
 19.33   13677  116.95
 19.34   15516  124.56
 19.35   18653  136.58
 19.36   23165  152.20
 19.37   29232  170.97
 19.38   35026  187.15
 19.39   38543  196.32
 19.40   38157  195.34
 19.41   33537  183.13
 19.42   26823  163.78
 19.43   21059  145.12
 19.44   16764  129.48
 19.45   14211  119.21
 19.46   12724  112.80
 19.47   11812  108.68
 19.48   11155  105.62
 19.49   10840  104.12
 19.50   10655  103.22
 19.51   10553  102.73
 19.52   10211  101.05
 19.53   10227  101.13
 19.54   10323  101.60
 19.55   10483  102.39
 19.56   10441  102.18
 19.57   10319  101.58
 19.58   10407  102.01
 19.59   10504  102.49
 19.60   10537  102.65
 19.61   10559  102.76
 19.62   10762  103.74
 19.63   10942  104.60
 19.64   11185  105.76
 19.65   11631  107.85
 19.66   12250  110.68
 19.67   13249  115.10
 19.68   14514  120.47
 19.69   16138  127.04
 19.70   18104  134.55
 19.71   19729  140.46
 19.72   21038  145.04
 19.73   20631  143.63
 19.74   19164  138.43
 19.75   16906  130.02
 19.76   15158  123.12
 19.77   13888  117.85
 19.78   12522  111.90
 19.79   11672  108.04
 19.80   11233  105.99
 19.81   10787  103.86
 19.82   10576  102.84
 19.83   10345  101.71
 19.84   10321  101.59
 19.85   10113  100.56
 19.86   10151  100.75
 19.87   10157  100.78
 19.88    9961   99.80
 19.89    9907   99.53
 19.90   10132  100.66
 19.91    9859   99.29
 19.92    9955   99.77
 19.93    9910   99.55
 19.94    9897   99.48
 19.95    9886   99.43
 19.96   10125  100.62
 19.97   10006  100.03
 19.98   10050  100.25
 19.99   10074  100.37
 20.00   10205  101.02
 20.01   10238  101.18
 20.02   10231  101.15
 20.03   10168  100.84
 20.04   10320  101.59
 20.05   10296  101.47
 20.06   10265  101.32
 20.07   10443  102.19
 20.08   10541  102.67
 20.09   10901  104.41
 20.10   10919  104.49
 20.11   11049  105.11
 20.12   11370  106.63
 20.13   11688  108.11
 20.14   11989  109.49
 20.15   12437  111.52
 20.16   13001  114.02
 20.17   13659  116.87
 20.18   14970  122.35
 20.19   16352  127.87
 20.20   18416  135.71
 20.21   20900  144.57
 20.22   24127  155.33
 20.23   27926  167.11
 20.24   31771  178.24
 20.25   34736  186.38
 20.26   35736  189.04
 20.27   34092  184.64
 20.28   30867  175.69
 20.29   26827  163.79
 20.30   23294  152.62
 20.31   20629  143.63
 20.32   18475  135.92
 20.33   17206  131.17
 20.34   16541  128.61
 20.35   16435  128.20
 20.36   16406  128.09
 20.37   17071  130.66
 20.38   17900  133.79
 20.39   19209  138.60
 20.40   21091  145.23
 20.41   23184  152.26
 20.42   26170  161.77
 20.43   30501  174.65
 20.44   35679  188.89
 20.45   41811  204.48
 20.46   48869  221.06
 20.47   55559  235.71
 20.48   59490  243.91
 20.49   61119  247.22
 20.50   58488  241.84
 20.51   52204  228.48
 20.52   45969  214.40
 20.53   38499  196.21
 20.54   32288  179.69
 20.55   27584  166.08
 20.56   23710  153.98
 20.57   20690  143.84
 20.58   18523  136.10
 20.59   16823  129.70
 20.60   15447  124.29
 20.61   14371  119.88
 20.62   13727  117.16
 20.63   13116  114.53
 20.64   12735  112.85
 20.65   12213  110.51
 20.66   11887  109.03
 20.67   11853  108.87
 20.68   11602  107.71
 20.69   11423  106.88
 20.70   11496  107.22
 20.71   11669  108.02
 20.72   11741  108.36
 20.73   11948  109.31
 20.74   12111  110.05
 20.75   12212  110.51
 20.76   12297  110.89
 20.77   12353  111.14
 20.78   12473  111.68
 20.79   12319  110.99
 20.80   12293  110.87
 20.81   12142  110.19
 20.82   11877  108.98
 20.83   11702  108.18
 20.84   11267  106.15
 20.85   11134  105.52
 20.86   10867  104.24
 20.87   10594  102.93
 20.88   10646  103.18
 20.89   10468  102.31
 20.90   10480  102.37
 20.91   10451  102.23
 20.92   10544  102.68
 20.93   10311  101.54
 20.94   10231  101.15
 20.95   10197  100.98
 20.96   10114  100.57
 20.97   10224  101.11
 20.98   10178  100.89
 20.99   10214  101.06
 21.00   10241  101.20
 21.01   10276  101.37
 21.02   10206  101.02
 21.03   10295  101.46
 21.04   10239  101.19
 21.05   10309  101.53
 21.06   10334  101.66
 21.07   10556  102.74
 21.08   10511  102.52
 21.09   10701  103.45
 21.10   10906  104.43
 21.11   10921  104.50
 21.12   11053  105.13
 21.13   11112  105.41
 21.14   11326  106.42
 21.15   11626  107.82
 21.16   11803  108.64
 21.17   12130  110.14
 21.18   12538  111.97
 21.19   12830  113.27
 21.20   13442  115.94
 21.21   14157  118.98
 21.22   14938  122.22
 21.23   15942  126.26
 21.24   17055  130.59
 21.25   18212  134.95
 21.26   19567  139.88
 21.27   20775  144.14
 21.28   21615  147.02
 21.29   21879  147.92
 21.30   22056  148.51
 21.31   21329  146.04
 21.32   20654  143.71
 21.33   20302  142.49
 21.34   20267  142.36
 21.35   20505  143.20
 21.36   21547  146.79
 21.37   23049  151.82
 21.38   25080  158.37
 21.39   27950  167.18
 21.40   32447  180.13
 21.41   38636  196.56
 21.42   47764  218.55
 21.43   59916  244.78
 21.44   78389  279.98
 21.45  104930  323.93
 21.46  141647  376.36
 21.47  187382  432.88
 21.48  237981  487.83
 21.49  274529  523.96
 21.50  289487  538.04
 21.51  271775  521.32
 21.52  227698  477.18
 21.53  175862  419.36
 21.54  129501  359.86
 21.55   94983  308.19
 21.56   72003  268.33
 21.57   57234  239.24
 21.58   46868  216.49
 21.59   39027  197.55
 21.60   33414  182.79
 21.61   28975  170.22
 21.62   25990  161.21
 21.63   24132  155.34
 21.64   22941  151.46
 21.65   22501  150.00
 21.66   22652  150.51
 21.67   22995  151.64
 21.68   23937  154.72
 21.69   25462  159.57
 21.70   27583  166.08
 21.71   29671  172.25
 21.72   31234  176.73
 21.73   32423  180.06
 21.74   31867  178.51
 21.75   30184  173.74
 21.76   27594  166.11
 21.77   24639  156.97
 21.78   22132  148.77
 21.79   19864  140.94
 21.80   18071  134.43
 21.81   16747  129.41
 21.82   15588  124.85
 21.83   14703  121.26
 21.84   13821  117.56
 21.85   13107  114.49
 21.86   12491  111.76
 21.87   12360  111.18
 21.88   11952  109.33
 21.89   11588  107.65
 21.90   11478  107.14
 21.91   11475  107.12
 21.92   11431  106.92
 21.93   11163  105.66
 21.94   11194  105.80
 21.95   11114  105.42
 21.96   11223  105.94
 21.97   11114  105.42
 21.98   11037  105.06
 21.99   11229  105.97
 22.00   11353  106.55
 22.01   11359  106.58
 22.02   11792  108.59
 22.03   11691  108.12
 22.04   12062  109.83
 22.05   12325  111.02
 22.06   12860  113.40
 22.07   13309  115.36
 22.08   13779  117.38
 22.09   14233  119.30
 22.10   15140  123.04
 22.11   15968  126.36
 22.12   16836  129.75
 22.13   18512  136.06
 22.14   20190  142.09
 22.15   21826  147.74
 22.16   24088  155.20
 22.17   27097  164.61
 22.18   30340  174.18
 22.19   34255  185.08
 22.20   39525  198.81
 22.21   44188  210.21
 22.22   50110  223.85
 22.23   55754  236.12
 22.24   60578  246.13
 22.25   63319  251.63
 22.26   62546  250.09
 22.27   58572  242.02
 22.28   52112  228.28
 22.29   45390  213.05
 22.30   38893  197.21
 22.31   33171  182.13
 22.32   28802  169.71
 22.33   24916  157.85
 22.34   21861  147.85
 22.35   19705  140.37
 22.36   17649  132.85
 22.37   16272  127.56
 22.38   15309  123.73
 22.39   14124  118.84
 22.40   13209  114.93
 22.41   12472  111.68
 22.42   11906  109.11
 22.43   11433  106.93
 22.44   10981  104.79
 22.45   10682  103.35
 22.46   10397  101.97
 22.47   10425  102.10
 22.48   10236  101.17
 22.49   10054  100.27
 22.50    9813   99.06
 22.51    9781   98.90
 22.52    9695   98.46
 22.53    9542   97.68
 22.54    9341   96.65
 22.55    9172   95.77
 22.56    9264   96.25
 22.57    9335   96.62
 22.58    9133   95.57
 22.59    9034   95.05
 22.60    9038   95.07
 22.61    8964   94.68
 22.62    9082   95.30
 22.63    8974   94.73
 22.64    8866   94.16
 22.65    9054   95.15
 22.66    8989   94.81
 22.67    9057   95.17
 22.68    8962   94.67
 22.69    9126   95.53
 22.70    9125   95.52
 22.71    9228   96.06
 22.72    9372   96.81
 22.73    9437   97.14
 22.74    9601   97.98
 22.75    9893   99.46
 22.76   10007  100.03
 22.77   10356  101.76
 22.78   10620  103.05
 22.79   11134  105.52
 22.80   11519  107.33
 22.81   12222  110.55
 22.82   12846  113.34
 22.83   13751  117.26
 22.84   14509  120.45
 22.85   15252  123.50
 22.86   16041  126.65
 22.87   16416  128.12
 22.88   16605  128.86
 22.89   15922  126.18
 22.90   15236  123.43
 22.91   14374  119.89
 22.92   13399  115.75
 22.93   12665  112.54
 22.94   11878  108.99
 22.95   11358  106.57
 22.96   10971  104.74
 22.97   10557  102.75
 22.98   10240  101.19
 22.99    9949   99.74
 23.00    9676   98.37
 23.01    9504   97.49
 23.02    9331   96.60
 23.03    9244   96.15
 23.04    9154   95.68
 23.05    9038   95.07
 23.06    9040   95.08
 23.07    8909   94.39
 23.08    9009   94.92
 23.09    8815   93.89
 23.10    9189   95.86
 23.11    9190   95.86
 23.12    9265   96.25
 23.13    9301   96.44
 23.14    9596   97.96
 23.15    9610   98.03
 23.16    9599   97.97
 23.17    9532   97.63
 23.18    9625   98.11
 23.19    9820   99.10
 23.20    9953   99.76
 23.21   10184  100.92
 23.22   10548  102.70
 23.23   10618  103.04
 23.24   11267  106.15
 23.25   12021  109.64
 23.26   12730  112.83
 23.27   13700  117.05
 23.28   14898  122.06
 23.29   16340  127.83
 23.30   18243  135.07
 23.31   20390  142.79
 23.32   23076  151.91
 23.33   26554  162.95
 23.34   30176  173.71
 23.35   33830  183.93
 23.36   37239  192.97
 23.37   39433  198.58
 23.38   39198  197.98
 23.39   36955  192.24
 23.40   33574  183.23
 23.41   29243  171.01
 23.42   24921  157.86
 23.43   21455  146.48
 23.44   18478  135.93
 23.45   16395  128.04
 23.46   14657  121.07
 23.47   13465  116.04
 23.48   12370  111.22
 23.49   11763  108.46
 23.50   11229  105.97
 23.51   10666  103.28
 23.52   10420  102.08
 23.53   10255  101.27
 23.54   10204  101.01
 23.55   10089  100.44
 23.56    9877   99.38
 23.57    9865   99.32
 23.58    9559   97.77
 23.59    9282   96.34
 23.60    8854   94.10
 23.61    8863   94.14
 23.62    8619   92.84
 23.63    8629   92.89
 23.64    8477   92.07
 23.65    8272   90.95
 23.66    8210   90.61
 23.67    8097   89.98
 23.68    8341   91.33
 23.69    8104   90.02
 23.70    8282   91.01
 23.71    8171   90.39
 23.72    8349   91.37
 23.73    8648   92.99
 23.74    8783   93.72
 23.75    9502   97.48
 23.76    9755   98.77
 23.77   10205  101.02
 23.78   10600  102.96
 23.79   10524  102.59
 23.80   10150  100.75
 23.81    9554   97.74
 23.82    9243   96.14
 23.83    8729   93.43
 23.84    8457   91.96
 23.85    8239   90.77
 23.86    8129   90.16
 23.87    7810   88.37
 23.88    7779   88.20
 23.89    7855   88.63
 23.90    7749   88.03
 23.91    7688   87.68
 23.92    7785   88.23
 23.93    7729   87.91
 23.94    7771   88.15
 23.95    7850   88.60
 23.96    7758   88.08
 23.97    7837   88.53
 23.98    7778   88.19
 23.99    7961   89.22
 24.00    7912   88.95
 24.01    8026   89.59
 24.02    8251   90.84
 24.03    8103   90.02
 24.04    8101   90.01
 24.05    8150   90.28
 24.06    8202   90.56
 24.07    8271   90.95
 24.08    8069   89.83
 24.09    8179   90.44
 24.10    7960   89.22
 24.11    7923   89.01
 24.12    7754   88.06
 24.13    7745   88.01
 24.14    7638   87.40
 24.15    7507   86.64
 24.16    7679   87.63
 24.17    7677   87.62
 24.18    7863   88.67
 24.19    7648   87.45
 24.20    7769   88.14
 24.21    7762   88.10
 24.22    7829   88.48
 24.23    7687   87.68
 24.24    7829   88.48
 24.25    7841   88.55
 24.26    8009   89.49
 24.27    8114   90.08
 24.28    8252   90.84
 24.29    8432   91.83
 24.30    8417   91.74
 24.31    8321   91.22
 24.32    8310   91.16
 24.33    8173   90.40
 24.34    8206   90.59
 24.35    8131   90.17
 24.36    8098   89.99
 24.37    7977   89.31
 24.38    7794   88.28
 24.39    7940   89.11
 24.40    7945   89.13
 24.41    7868   88.70
 24.42    8042   89.68
 24.43    7909   88.93
 24.44    8049   89.72
 24.45    8188   90.49
 24.46    8449   91.92
 24.47    8733   93.45
 24.48    9139   95.60
 24.49    9665   98.31
 24.50   10208  101.03
 24.51   11344  106.51
 24.52   12326  111.02
 24.53   14032  118.46
 24.54   15655  125.12
 24.55   17388  131.86
 24.56   18888  137.43
 24.57   19560  139.86
 24.58   19054  138.04
 24.59   17808  133.45
 24.60   16162  127.13
 24.61   14184  119.10
 24.62   12536  111.96
 24.63   11232  105.98
 24.64   10499  102.46
 24.65   10069  100.34
 24.66    9791   98.95
 24.67    9592   97.94
 24.68    9514   97.54
 24.69    9586   97.91
 24.70    9741   98.70
 24.71   10263  101.31
 24.72   11306  106.33
 24.73   12925  113.69
 24.74   15262  123.54
 24.75   18207  134.93
 24.76   20743  144.02
 24.77   21441  146.43
 24.78   20772  144.12
 24.79   18476  135.93
 24.80   15789  125.65
 24.81   13662  116.88
 24.82   12317  110.98
 24.83   11752  108.41
 24.84   11935  109.25
 24.85   12722  112.79
 24.86   13486  116.13
 24.87   14366  119.86
 24.88   15317  123.76
 24.89   15473  124.39
 24.90   15093  122.85
 24.91   14458  120.24
 24.92   13265  115.17
 24.93   12220  110.54
 24.94   11341  106.49
 24.95   10466  102.30
 24.96    9982   99.91
 24.97    9392   96.91
 24.98    9050   95.13
 24.99    8778   93.69
 25.00    8384   91.56
 25.01    8027   89.59
 25.02    7942   89.12
 25.03    7726   87.90
 25.04    7492   86.56
 25.05    7454   86.34
 25.06    7322   85.57
 25.07    7113   84.34
 25.08    7229   85.02
 25.09    7041   83.91
 25.10    7004   83.69
 25.11    7038   83.89
 25.12    7060   84.02
 25.13    7003   83.68
 25.14    7028   83.83
 25.15    7074   84.11
 25.16    6922   83.20
 25.17    6897   83.05
 25.18    6947   83.35
 25.19    6843   82.72
 25.20    6816   82.56
 25.21    6871   82.89
 25.22    6850   82.76
 25.23    6860   82.83
 25.24    6848   82.75
 25.25    6823   82.60
 25.26    6795   82.43
 25.27    6800   82.46
 25.28    6840   82.70
 25.29    6736   82.07
 25.30    6900   83.07
 25.31    6813   82.54
 25.32    6805   82.49
 25.33    6847   82.75
 25.34    6691   81.80
 25.35    6854   82.79
 25.36    7059   84.02
 25.37    6866   82.86
 25.38    6885   82.98
 25.39    6910   83.13
 25.40    6744   82.12
 25.41    6715   81.95
 25.42    6656   81.58
 25.43    6747   82.14
 25.44    6727   82.02
 25.45    6707   81.90
 25.46    6687   81.77
 25.47    6849   82.76
 25.48    6721   81.98
 25.49    6572   81.07
 25.50    6752   82.17
 25.51    6716   81.95
 25.52    6714   81.94
 25.53    6725   82.01
 25.54    6705   81.88
 25.55    6725   82.01
 25.56    6628   81.41
 25.57    6694   81.82
 25.58    6697   81.84
 25.59    6819   82.58
 25.60    6733   82.05
 25.61    6756   82.19
 25.62    6767   82.26
 25.63    6633   81.44
 25.64    6709   81.91
 25.65    6769   82.27
 25.66    6807   82.50
 25.67    6869   82.88
 25.68    6825   82.61
 25.69    6709   81.91
 25.70    6868   82.87
 25.71    7061   84.03
 25.72    6970   83.49
 25.73    6948   83.35
 25.74    7125   84.41
 25.75    7074   84.11
 25.76    7180   84.73
 25.77    7277   85.31
 25.78    7255   85.18
 25.79    7350   85.73
 25.80    7468   86.42
 25.81    7539   86.83
 25.82    7664   87.54
 25.83    7901   88.89
 25.84    7975   89.30
 25.85    8326   91.25
 25.86    8578   92.62
 25.87    8756   93.57
 25.88    9410   97.01
 25.89   10171  100.85
 25.90   10527  102.60
 25.91   11021  104.98
 25.92   11395  106.75
 25.93   11673  108.04
 25.94   11733  108.32
 25.95   12048  109.76
 25.96   12339  111.08
 25.97   12415  111.42
 25.98   12623  112.35
 25.99   12784  113.07
 26.00   12592  112.21
 26.01   12216  110.53
 26.02   11816  108.70
 26.03   11054  105.14
 26.04   10546  102.69
 26.05   10073  100.36
 26.06    9544   97.69
 26.07    9211   95.97
 26.08    8956   94.64
 26.09    8680   93.17
 26.10    8477   92.07
 26.11    8249   90.82
 26.12    8169   90.38
 26.13    8197   90.54
 26.14    7986   89.36
 26.15    8055   89.75
 26.16    8141   90.23
 26.17    8175   90.42
 26.18    8367   91.47
 26.19    8444   91.89
 26.20    8418   91.75
 26.21    8694   93.24
 26.22    8689   93.21
 26.23    8691   93.23
 26.24    8684   93.19
 26.25    8621   92.85
 26.26    8675   93.14
 26.27    8848   94.06
 26.28    8890   94.29
 26.29    9165   95.73
 26.30    9511   97.52
 26.31    9817   99.08
 26.32    9937   99.68
 26.33   10568  102.80
 26.34   10650  103.20
 26.35   10759  103.73
 26.36   10919  104.49
 26.37   11408  106.81
 26.38   11907  109.12
 26.39   12505  111.83
 26.40   12930  113.71
 26.41   13007  114.05
 26.42   12135  110.16
 26.43   11102  105.37
 26.44    9869   99.34
 26.45    8989   94.81
 26.46    8248   90.82
 26.47    7633   87.37
 26.48    7288   85.37
 26.49    7152   84.57
 26.50    7016   83.76
 26.51    6911   83.13
 26.52    6893   83.02
 26.53    6847   82.75
 26.54    6660   81.61
 26.55    6685   81.76
 26.56    6572   81.07
 26.57    6542   80.88
 26.58    6646   81.52
 26.59    6469   80.43
 26.60    6614   81.33
 26.61    6557   80.98
 26.62    6614   81.33
 26.63    6658   81.60
 26.64    6612   81.31
 26.65    6650   81.55
 26.66    6635   81.46
 26.67    6685   81.76
 26.68    6802   82.47
 26.69    6832   82.66
 26.70    6961   83.43
 26.71    6992   83.62
 26.72    7119   84.37
 26.73    7254   85.17
 26.74    7400   86.02
 26.75    7602   87.19
 26.76    7788   88.25
 26.77    8031   89.62
 26.78    8232   90.73
 26.79    8537   92.40
 26.80    8602   92.75
 26.81    9116   95.48
 26.82    9267   96.27
 26.83    9479   97.36
 26.84    9691   98.44
 26.85    9706   98.52
 26.86    9533   97.64
 26.87    9283   96.35
 26.88    9016   94.95
 26.89    8775   93.67
 26.90    8553   92.48
 26.91    8360   91.43
 26.92    8141   90.23
 26.93    7875   88.74
 26.94    7859   88.65
 26.95    7490   86.54
 26.96    7446   86.29
 26.97    7331   85.62
 26.98    7111   84.33
 26.99    7064   84.05
 27.00    6833   82.66
 27.01    6825   82.61
 27.02    6743   82.12
 27.03    6798   82.45
 27.04    6713   81.93
 27.05    6604   81.26
 27.06    6451   80.32
 27.07    6441   80.26
 27.08    6487   80.54
 27.09    6620   81.36
 27.10    6528   80.80
 27.11    6686   81.77
 27.12    6718   81.96
 27.13    6823   82.60
 27.14    6890   83.01
 27.15    7034   83.87
 27.16    7352   85.74
 27.17    7775   88.18
 27.18    8245   90.80
 27.19    8980   94.76
 27.20    9740   98.69
 27.21   10472  102.33
 27.22   11172  105.70
 27.23   11478  107.14
 27.24   11202  105.84
 27.25   10429  102.12
 27.26    9539   97.67
 27.27    8848   94.06
 27.28    8387   91.58
 27.29    7938   89.10
 27.30    7707   87.79
 27.31    7553   86.91
 27.32    7639   87.40
 27.33    7846   88.58
 27.34    8137   90.21
 27.35    8448   91.91
 27.36    8975   94.74
 27.37    9562   97.79
 27.38   10306  101.52
 27.39   11283  106.22
 27.40   12327  111.03
 27.41   12901  113.58
 27.42   13422  115.85
 27.43   14062  118.58
 27.44   14005  118.34
 27.45   14140  118.91
 27.46   13557  116.43
 27.47   13089  114.41
 27.48   12505  111.83
 27.49   11652  107.94
 27.50   10895  104.38
 27.51   10327  101.62
 27.52    9667   98.32
 27.53    9379   96.85
 27.54    9169   95.75
 27.55    9070   95.24
 27.56    9278   96.32
 27.57    9419   97.05
 27.58    9665   98.31
 27.59   10110  100.55
 27.60   10377  101.87
 27.61   11091  105.31
 27.62   11576  107.59
 27.63   11766  108.47
 27.64   11783  108.55
 27.65   11457  107.04
 27.66   10939  104.59
 27.67   10201  101.00
 27.68    9646   98.21
 27.69    9257   96.21
 27.70    8726   93.41
 27.71    8480   92.09
 27.72    8070   89.83
 27.73    7868   88.70
 27.74    7707   87.79
 27.75    7528   86.76
 27.76    7487   86.53
 27.77    7284   85.35
 27.78    7203   84.87
 27.79    7243   85.11
 27.80    7310   85.50
 27.81    7216   84.95
 27.82    7484   86.51
 27.83    7504   86.63
 27.84    7623   87.31
 27.85    7734   87.94
 27.86    7890   88.83
 27.87    7894   88.85
 27.88    7956   89.20
 27.89    7915   88.97
 27.90    7744   88.00
 27.91    7544   86.86
 27.92    7337   85.66
 27.93    7259   85.20
 27.94    7045   83.93
 27.95    6933   83.26
 27.96    6740   82.10
 27.97    6616   81.34
 27.98    6607   81.28
 27.99    6674   81.69
 28.00    6513   80.70
 28.01    6602   81.25
 28.02    6535   80.84
 28.03    6519   80.74
 28.04    6330   79.56
 28.05    6672   81.68
 28.06    6745   82.13
 28.07    6706   81.89
 28.08    6869   82.88
 28.09    7038   83.89
 28.10    7265   85.23
 28.11    7502   86.61
 28.12    7801   88.32
 28.13    8109   90.05
 28.14    8839   94.02
 28.15    9653   98.25
 28.16   10310  101.54
 28.17   11121  105.46
 28.18   11891  109.05
 28.19   12133  110.15
 28.20   12145  110.20
 28.21   11750  108.40
 28.22   11190  105.78
 28.23   10469  102.32
 28.24    9807   99.03
 28.25    9095   95.37
 28.26    8890   94.29
 28.27    8466   92.01
 28.28    8368   91.48
 28.29    8548   92.46
 28.30    8645   92.98
 28.31    8904   94.36
 28.32    9002   94.88
 28.33    8813   93.88
 28.34    8579   92.62
 28.35    8093   89.96
 28.36    7564   86.97
 28.37    7148   84.55
 28.38    6947   83.35
 28.39    6668   81.66
 28.40    6435   80.22
 28.41    6412   80.07
 28.42    6255   79.09
 28.43    6077   77.96
 28.44    6092   78.05
 28.45    6048   77.77
 28.46    5927   76.99
 28.47    5966   77.24
 28.48    5926   76.98
 28.49    5908   76.86
 28.50    5859   76.54
 28.51    5969   77.26
 28.52    5945   77.10
 28.53    5809   76.22
 28.54    5984   77.36
 28.55    5957   77.18
 28.56    6016   77.56
 28.57    5992   77.41
 28.58    6331   79.57
 28.59    6379   79.87
 28.60    6637   81.47
 28.61    6691   81.80
 28.62    6886   82.98
 28.63    6890   83.01
 28.64    6603   81.26
 28.65    6400   80.00
 28.66    6273   79.20
 28.67    6051   77.79
 28.68    6032   77.67
 28.69    5966   77.24
 28.70    5880   76.68
 28.71    5910   76.88
 28.72    6045   77.75
 28.73    6014   77.55
 28.74    6036   77.69
 28.75    6135   78.33
 28.76    6142   78.37
 28.77    6078   77.96
 28.78    6175   78.58
 28.79    6257   79.10
 28.80    6427   80.17
 28.81    6406   80.04
 28.82    6672   81.68
 28.83    6740   82.10
 28.84    6940   83.31
 28.85    7025   83.82
 28.86    7226   85.01
 28.87    7274   85.29
 28.88    7345   85.70
 28.89    7358   85.78
 28.90    7392   85.98
 28.91    7442   86.27
 28.92    7443   86.27
 28.93    7768   88.14
 28.94    8032   89.62
 28.95    8489   92.14
 28.96    9088   95.33
 28.97    9592   97.94
 28.98   10456  102.25
 28.99   11120  105.45
 29.00   11598  107.69
 29.01   12224  110.56
 29.02   12266  110.75
 29.03   12040  109.73
 29.04   11668  108.02
 29.05   11251  106.07
 29.06   10790  103.87
 29.07   10826  104.05
 29.08   10846  104.14
 29.09   10965  104.71
 29.10   10870  104.26
 29.11   10750  103.68
 29.12   10602  102.97
 29.13    9945   99.72
 29.14    9607   98.02
 29.15    9157   95.69
 29.16    9100   95.39
 29.17    8939   94.55
 29.18    8695   93.25
 29.19    8734   93.46
 29.20    8816   93.89
 29.21    8814   93.88
 29.22    8941   94.56
 29.23    8980   94.76
 29.24    8919   94.44
 29.25    9125   95.52
 29.26    9075   95.26
 29.27    8748   93.53
 29.28    8562   92.53
 29.29    8041   89.67
 29.30    7714   87.83
 29.31    7397   86.01
 29.32    7195   84.82
 29.33    6984   83.57
 29.34    6924   83.21
 29.35    6939   83.30
 29.36    7051   83.97
 29.37    7049   83.96
 29.38    7085   84.17
 29.39    7195   84.82
 29.40    7230   85.03
 29.41    7236   85.06
 29.42    7374   85.87
 29.43    7472   86.44
 29.44    7434   86.22
 29.45    7541   86.84
 29.46    7539   86.83
 29.47    7415   86.11
 29.48    7446   86.29
 29.49    7376   85.88
 29.50    7543   86.85
 29.51    7674   87.60
 29.52    7835   88.52
 29.53    8161   90.34
 29.54    8307   91.14
 29.55    8698   93.26
 29.56    9152   95.67
 29.57    9505   97.49
 29.58   10282  101.40
 29.59   10875  104.28
 29.60   11852  108.87
 29.61   13390  115.72
 29.62   15295  123.67
 29.63   17561  132.52
 29.64   20379  142.76
 29.65   23265  152.53
 29.66   25361  159.25
 29.67   25977  161.17
 29.68   25097  158.42
 29.69   22497  149.99
 29.70   19578  139.92
 29.71   16651  129.04
 29.72   13987  118.27
 29.73   12051  109.78
 29.74   10587  102.89
 29.75    9484   97.39
 29.76    8929   94.49
 29.77    8209   90.60
 29.78    7946   89.14
 29.79    7620   87.29
 29.80    7388   85.95
 29.81    7195   84.82
 29.82    7216   84.95
 29.83    7090   84.20
 29.84    7202   84.86
 29.85    7265   85.23
 29.86    7408   86.07
 29.87    7701   87.76
 29.88    7974   89.30
 29.89    8399   91.65
 29.90    8893   94.30
 29.91    9597   97.96
 29.92   10124  100.62
 29.93   10537  102.65
 29.94   11258  106.10
 29.95   11665  108.00
 29.96   11963  109.38
 29.97   11893  109.06
 29.98   11798  108.62
 29.99   12037  109.71
 30.00   12073  109.88
 30.01   12294  110.88
 30.02   12169  110.31
 30.03   12017  109.62
 30.04   11743  108.37
 30.05   11172  105.70
 30.06   10646  103.18
 30.07   10184  100.92
 30.08    9721   98.60
 30.09    9642   98.19
 30.10    9636   98.16
 30.11    9654   98.25
 30.12    9643   98.20
 30.13    9492   97.43
 30.14    9320   96.54
 30.15    8981   94.77
 30.16    8660   93.06
 30.17    8269   90.93
 30.18    7945   89.13
 30.19    7668   87.57
 30.20    7652   87.48
 30.21    7617   87.28
 30.22    7663   87.54
 30.23    7555   86.92
 30.24    7619   87.29
 30.25    7835   88.52
 30.26    7657   87.50
 30.27    7626   87.33
 30.28    7388   85.95
 30.29    7295   85.41
 30.30    7046   83.94
 30.31    6882   82.96
 30.32    6803   82.48
 30.33    6689   81.79
 30.34    6529   80.80
 30.35    6324   79.52
 30.36    6304   79.40
 30.37    6259   79.11
 30.38    6365   79.78
 30.39    6294   79.33
 30.40    6396   79.97
 30.41    6280   79.25
 30.42    6441   80.26
 30.43    6470   80.44
 30.44    6468   80.42
 30.45    6555   80.96
 30.46    6612   81.31
 30.47    6892   83.02
 30.48    7141   84.50
 30.49    7367   85.83
 30.50    7688   87.68
 30.51    8028   89.60
 30.52    8353   91.39
 30.53    8706   93.31
 30.54    9187   95.85
 30.55    9895   99.47
 30.56   10462  102.28
 30.57   11013  104.94
 30.58   11705  108.19
 30.59   12245  110.66
 30.60   13321  115.42
 30.61   13904  117.92
 30.62   14725  121.35
 30.63   15420  124.18
 30.64   15885  126.04
 30.65   16134  127.02
 30.66   16242  127.44
 30.67   15731  125.42
 30.68   15069  122.76
 30.69   14211  119.21
 30.70   13272  115.20
 30.71   12330  111.04
 30.72   11518  107.32
 30.73   10753  103.70
 30.74   10278  101.38
 30.75    9978   99.89
 30.76    9491   97.42
 30.77    9205   95.94
 30.78    8999   94.86
 30.79    8619   92.84
 30.80    8248   90.82
 30.81    8029   89.60
 30.82    7786   88.24
 30.83    7548   86.88
 30.84    7257   85.19
 30.85    7004   83.69
 30.86    6959   83.42
 30.87    6870   82.89
 30.88    6597   81.22
 30.89    6569   81.05
 30.90    6570   81.06
 30.91    6412   80.07
 30.92    6409   80.06
 30.93    6320   79.50
 30.94    6078   77.96
 30.95    6042   77.73
 30.96    6053   77.80
 30.97    6060   77.85
 30.98    5807   76.20
 30.99    5989   77.39
 31.00    5839   76.41
 31.01    5889   76.74
 31.02    5909   76.87
 31.03    5821   76.30
 31.04    5879   76.67
 31.05    5884   76.71
 31.06    5867   76.60
 31.07    5867   76.60
 31.08    5926   76.98
 31.09    6029   77.65
 31.10    5909   76.87
 31.11    5795   76.12
 31.12    6009   77.52
 31.13    6054   77.81
 31.14    6063   77.87
 31.15    6266   79.16
 31.16    6446   80.29
 31.17    6428   80.17
 31.18    6656   81.58
 31.19    6680   81.73
 31.20    6745   82.13
 31.21    6744   82.12
 31.22    6889   83.00
 31.23    7008   83.71
 31.24    6827   82.63
 31.25    6780   82.34
 31.26    6729   82.03
 31.27    6464   80.40
 31.28    6453   80.33
 31.29    6385   79.91
 31.30    6305   79.40
 31.31    6108   78.15
 31.32    6148   78.41
 31.33    6137   78.34
 31.34    6015   77.56
 31.35    6043   77.74
 31.36    5918   76.93
 31.37    5948   77.12
 31.38    5887   76.73
 31.39    5862   76.56
 31.40    5857   76.53
 31.41    5921   76.95
 31.42    5889   76.74
 31.43    5854   76.51
 31.44    5871   76.62
 31.45    5914   76.90
 31.46    5970   77.27
 31.47    5971   77.27
 31.48    5990   77.40
 31.49    6037   77.70
 31.50    6162   78.50
 31.51    6062   77.86
 31.52    6065   77.88
 31.53    6235   78.96
 31.54    6227   78.91
 31.55    6338   79.61
 31.56    6392   79.95
 31.57    6491   80.57
 31.58    6553   80.95
 31.59    6751   82.16
 31.60    6893   83.02
 31.61    6894   83.03
 31.62    7121   84.39
 31.63    7084   84.17
 31.64    7077   84.12
 31.65    7232   85.04
 31.66    7195   84.82
 31.67    7130   84.44
 31.68    7032   83.86
 31.69    7030   83.85
 31.70    6920   83.19
 31.71    6839   82.70
 31.72    6724   82.00
 31.73    6610   81.30
 31.74    6487   80.54
 31.75    6332   79.57
 31.76    6242   79.01
 31.77    6157   78.47
 31.78    6196   78.71
 31.79    5997   77.44
 31.80    6007   77.50
 31.81    5915   76.91
 31.82    5873   76.64
 31.83    5778   76.01
 31.84    5811   76.23
 31.85    5702   75.51
 31.86    5715   75.60
 31.87    5680   75.37
 31.88    5617   74.95
 31.89    5673   75.32
 31.90    5723   75.65
 31.91    5797   76.14
 31.92    5772   75.97
 31.93    5713   75.58
 31.94    5638   75.09
 31.95    5770   75.96
 31.96    5764   75.92
 31.97    5732   75.71
 31.98    5807   76.20
 31.99    5696   75.47
 32.00    5756   75.87
 32.01    5873   76.64
 32.02    5957   77.18
 32.03    5995   77.43
 32.04    5990   77.40
 32.05    6041   77.72
 32.06    6110   78.17
 32.07    6136   78.33
 32.08    6142   78.37
 32.09    6243   79.01
 32.10    6379   79.87
 32.11    6493   80.58
 32.12    6488   80.55
 32.13    6662   81.62
 32.14    6790   82.40
 32.15    7051   83.97
 32.16    7179   84.73
 32.17    7386   85.94
 32.18    7634   87.37
 32.19    8051   89.73
 32.20    8427   91.80
 32.21    8845   94.05
 32.22    9282   96.34
 32.23    9398   96.94
 32.24    9237   96.11
 32.25    8926   94.48
 32.26    8595   92.71
 32.27    8397   91.64
 32.28    8323   91.23
 32.29    8436   91.85
 32.30    8598   92.73
 32.31    8812   93.87
 32.32    8851   94.08
 32.33    8954   94.63
 32.34    8836   94.00
 32.35    8542   92.42
 32.36    8230   90.72
 32.37    7939   89.10
 32.38    7688   87.68
 32.39    7309   85.49
 32.40    7150   84.56
 32.41    6964   83.45
 32.42    6726   82.01
 32.43    6690   81.79
 32.44    6625   81.39
 32.45    6626   81.40
 32.46    6833   82.66
 32.47    6854   82.79
 32.48    6848   82.75
 32.49    6948   83.35
 32.50    7095   84.23
 32.51    7244   85.11
 32.52    7423   86.16
 32.53    7699   87.74
 32.54    7890   88.83
 32.55    8165   90.36
 32.56    8484   92.11
 32.57    8743   93.50
 32.58    9042   95.09
 32.59    9175   95.79
 32.60    9111   95.45
 32.61    9148   95.65
 32.62    8754   93.56
 32.63    8612   92.80
 32.64    8499   92.19
 32.65    8270   90.94
 32.66    8255   90.86
 32.67    8310   91.16
 32.68    8468   92.02
 32.69    8578   92.62
 32.70    8779   93.70
 32.71    8681   93.17
 32.72    8666   93.09
 32.73    8680   93.17
 32.74    8612   92.80
 32.75    8627   92.88
 32.76    8342   91.33
 32.77    8329   91.26
 32.78    8146   90.26
 32.79    8073   89.85
 32.80    8033   89.63
 32.81    7983   89.35
 32.82    8184   90.47
 32.83    8625   92.87
 32.84    9243   96.14
 32.85   10033  100.16
 32.86   11277  106.19
 32.87   12560  112.07
 32.88   13790  117.43
 32.89   14123  118.84
 32.90   13916  117.97
 32.91   13107  114.49
 32.92   11679  108.07
 32.93   10286  101.42
 32.94    9197   95.90
 32.95    8275   90.97
 32.96    7733   87.94
 32.97    7298   85.43
 32.98    7252   85.16
 32.99    7104   84.29
 33.00    7106   84.30
 33.01    7058   84.01
 33.02    7124   84.40
 33.03    7544   86.86
 33.04    7772   88.16
 33.05    8045   89.69
 33.06    8476   92.07
 33.07    8964   94.68
 33.08    9581   97.88
 33.09   10369  101.83
 33.10   11016  104.96
 33.11   11704  108.19
 33.12   12019  109.63
 33.13   12073  109.88
 33.14   11756  108.43
 33.15   11157  105.63
 33.16   10549  102.71
 33.17    9808   99.04
 33.18    9330   96.59
 33.19    8754   93.56
 33.20    8331   91.27
 33.21    7997   89.43
 33.22    7705   87.78
 33.23    7557   86.93
 33.24    7274   85.29
 33.25    7099   84.26
 33.26    7184   84.76
 33.27    7142   84.51
 33.28    7164   84.64
 33.29    7181   84.74
 33.30    7219   84.96
 33.31    7217   84.95
 33.32    7028   83.83
 33.33    7083   84.16
 33.34    6998   83.65
 33.35    6889   83.00
 33.36    6902   83.08
 33.37    6526   80.78
 33.38    6410   80.06
 33.39    6306   79.41
 33.40    6173   78.57
 33.41    6056   77.82
 33.42    6020   77.59
 33.43    5944   77.10
 33.44    5985   77.36
 33.45    5953   77.16
 33.46    5986   77.37
 33.47    5800   76.16
 33.48    5922   76.95
 33.49    5818   76.28
 33.50    5834   76.38
 33.51    5829   76.35
 33.52    5878   76.67
 33.53    6067   77.89
 33.54    6106   78.14
 33.55    6253   79.08
 33.56    6510   80.68
 33.57    6828   82.63
 33.58    7103   84.28
 33.59    7150   84.56
 33.60    7259   85.20
 33.61    6957   83.41
 33.62    6748   82.15
 33.63    6510   80.68
 33.64    6307   79.42
 33.65    6200   78.74
 33.66    6312   79.45
 33.67    6165   78.52
 33.68    6284   79.27
 33.69    6176   78.59
 33.70    6291   79.32
 33.71    6287   79.29
 33.72    6394   79.96
 33.73    6368   79.80
 33.74    6419   80.12
 33.75    6378   79.86
 33.76    6228   78.92
 33.77    6298   79.36
 33.78    6272   79.20
 33.79    6096   78.08
 33.80    6012   77.54
 33.81    6152   78.43
 33.82    6129   78.29
 33.83    6015   77.56
 33.84    6136   78.33
 33.85    5915   76.91
 33.86    5963   77.22
 33.87    5980   77.33
 33.88    5861   76.56
 33.89    5825   76.32
 33.90    5871   76.62
 33.91    5783   76.05
 33.92    5772   75.97
 33.93    5918   76.93
 33.94    5873   76.64
 33.95    5888   76.73
 33.96    5896   76.79
 33.97    5923   76.96
 33.98    6008   77.51
 33.99    6013   77.54
 34.00    6176   78.59
 34.01    6278   79.23
 34.02    6432   80.20
 34.03    6506   80.66
 34.04    6676   81.71
 34.05    6848   82.75
 34.06    7112   84.33
 34.07    7549   86.88
 34.08    7769   88.14
 34.09    7950   89.16
 34.10    8289   91.04
 34.11    8751   93.55
 34.12    9153   95.67
 34.13    9688   98.43
 34.14   10403  102.00
 34.15   11051  105.12
 34.16   11955  109.34
 34.17   12668  112.55
 34.18   13070  114.32
 34.19   12983  113.94
 34.20   12690  112.65
 34.21   12066  109.85
 34.22   11315  106.37
 34.23   10558  102.75
 34.24    9941   99.70
 34.25    9382   96.86
 34.26    8881   94.24
 34.27    8186   90.48
 34.28    7782   88.22
 34.29    7530   86.78
 34.30    7172   84.69
 34.31    7031   83.85
 34.32    6709   81.91
 34.33    6802   82.47
 34.34    6761   82.23
 34.35    6814   82.55
 34.36    6759   82.21
 34.37    6876   82.92
 34.38    6794   82.43
 34.39    6939   83.30
 34.40    7260   85.21
 34.41    7479   86.48
 34.42    7825   88.46
 34.43    8030   89.61
 34.44    8340   91.32
 34.45    8243   90.79
 34.46    8187   90.48
 34.47    8237   90.76
 34.48    8225   90.69
 34.49    8535   92.39
 34.50    8451   91.93
 34.51    8597   92.72
 34.52    8735   93.46
 34.53    8811   93.87
 34.54    8696   93.25
 34.55    8584   92.65
 34.56    8374   91.51
 34.57    8273   90.96
 34.58    8291   91.05
 34.59    8466   92.01
 34.60    8616   92.82
 34.61    8968   94.70
 34.62    9161   95.71
 34.63    9249   96.17
 34.64    8965   94.68
 34.65    8683   93.18
 34.66    8453   91.94
 34.67    7926   89.03
 34.68    7731   87.93
 34.69    7149   84.55
 34.70    7117   84.36
 34.71    6778   82.33
 34.72    6687   81.77
 34.73    6595   81.21
 34.74    6362   79.76
 34.75    6311   79.44
 34.76    6152   78.43
 34.77    6175   78.58
 34.78    6104   78.13
 34.79    6118   78.22
 34.80    6129   78.29
 34.81    6022   77.60
 34.82    6016   77.56
 34.83    6041   77.72
 34.84    6054   77.81
 34.85    6124   78.26
 34.86    6079   77.97
 34.87    6086   78.01
 34.88    6121   78.24
 34.89    6237   78.97
 34.90    6221   78.87
 34.91    6391   79.94
 34.92    6322   79.51
 34.93    6495   80.59
 34.94    6734   82.06
 34.95    6753   82.18
 34.96    7042   83.92
 34.97    7219   84.96
 34.98    7536   86.81
 34.99    7781   88.21
 35.00    8223   90.68
 35.01    8725   93.41
 35.02    9395   96.93
 35.03   10094  100.47
 35.04   11016  104.96
 35.05   11889  109.04
 35.06   12986  113.96
 35.07   14093  118.71
 35.08   15081  122.80
 35.09   15816  125.76
 35.10   16094  126.86
 35.11   16067  126.76
 35.12   15573  124.79
 35.13   15312  123.74
 35.14   15087  122.83
 35.15   14913  122.12
 35.16   15036  122.62
 35.17   14882  121.99
 35.18   14849  121.86
 35.19   14812  121.70
 35.20   14567  120.69
 35.21   14089  118.70
 35.22   13625  116.73
 35.23   13165  114.74
 35.24   12650  112.47
 35.25   12105  110.02
 35.26   11186  105.76
 35.27   10628  103.09
 35.28    9971   99.85
 35.29    9438   97.15
 35.30    8863   94.14
 35.31    8576   92.61
 35.32    8104   90.02
 35.33    7816   88.41
 35.34    7573   87.02
 35.35    7500   86.60
 35.36    7465   86.40
 35.37    7374   85.87
 35.38    7227   85.01
 35.39    7188   84.78
 35.40    7239   85.08
 35.41    7120   84.38
 35.42    6968   83.47
 35.43    6971   83.49
 35.44    6790   82.40
 35.45    6743   82.12
 35.46    6602   81.25
 35.47    6714   81.94
 35.48    6473   80.45
 35.49    6324   79.52
 35.50    6336   79.60
 35.51    6157   78.47
 35.52    6159   78.48
 35.53    5932   77.02
 35.54    5806   76.20
 35.55    5829   76.35
 35.56    5813   76.24
 35.57    5626   75.01
 35.58    5681   75.37
 35.59    5624   74.99
 35.60    5750   75.83
 35.61    5713   75.58
 35.62    5560   74.57
 35.63    5668   75.29
 35.64    5780   76.03
 35.65    5671   75.31
 35.66    5652   75.18
 35.67    5750   75.83
 35.68    5730   75.70
 35.69    5746   75.80
 35.70    5809   76.22
 35.71    5621   74.97
 35.72    5565   74.60
 35.73    5443   73.78
 35.74    5530   74.36
 35.75    5544   74.46
 35.76    5624   74.99
 35.77    5446   73.80
 35.78    5585   74.73
 35.79    5521   74.30
 35.80    5453   73.84
 35.81    5507   74.21
 35.82    5685   75.40
 35.83    5630   75.03
 35.84    5504   74.19
 35.85    5640   75.10
 35.86    5603   74.85
 35.87    5720   75.63
 35.88    5837   76.40
 35.89    5844   76.45
 35.90    5964   77.23
 35.91    6050   77.78
 35.92    6118   78.22
 35.93    6089   78.03
 35.94    6321   79.50
 35.95    6394   79.96
 35.96    6372   79.82
 35.97    6597   81.22
 35.98    6809   82.52
 35.99    6905   83.10
 36.00    7024   83.81
 36.01    7072   84.10
 36.02    7057   84.01
 36.03    7145   84.53
 36.04    7096   84.24
 36.05    6867   82.87
 36.06    6753   82.18
 36.07    6648   81.54
 36.08    6485   80.53
 36.09    6525   80.78
 36.10    6596   81.22
 36.11    6616   81.34
 36.12    6500   80.62
 36.13    6428   80.17
 36.14    6482   80.51
 36.15    6370   79.81
 36.16    6358   79.74
 36.17    6102   78.12
 36.18    5953   77.16
 36.19    5866   76.59
 36.20    5843   76.44
 36.21    5832   76.37
 36.22    5751   75.84
 36.23    5687   75.41
 36.24    5771   75.97
 36.25    5737   75.74
 36.26    5716   75.60
 36.27    5720   75.63
 36.28    5614   74.93
 36.29    5747   75.81
 36.30    5879   76.67
 36.31    5794   76.12
 36.32    5868   76.60
 36.33    5859   76.54
 36.34    5833   76.37
 36.35    5833   76.37
 36.36    5942   77.08
 36.37    5876   76.66
 36.38    5953   77.16
 36.39    5873   76.64
 36.40    5917   76.92
 36.41    5875   76.65
 36.42    5786   76.07
 36.43    5697   75.48
 36.44    5648   75.15
 36.45    5566   74.61
 36.46    5552   74.51
 36.47    5529   74.36
 36.48    5527   74.34
 36.49    5341   73.08
 36.50    5498   74.15
 36.51    5469   73.95
 36.52    5301   72.81
 36.53    5394   73.44
 36.54    5299   72.79
 36.55    5288   72.72
 36.56    5323   72.96
 36.57    5389   73.41
 36.58    5483   74.05
 36.59    5386   73.39
 36.60    5421   73.63
 36.61    5400   73.48
 36.62    5393   73.44
 36.63    5480   74.03
 36.64    5483   74.05
 36.65    5374   73.31
 36.66    5275   72.63
 36.67    5260   72.53
 36.68    5262   72.54
 36.69    5251   72.46
 36.70    5242   72.40
 36.71    5258   72.51
 36.72    5348   73.13
 36.73    5230   72.32
 36.74    5190   72.04
 36.75    5195   72.08
 36.76    5097   71.39
 36.77    5190   72.04
 36.78    5225   72.28
 36.79    5216   72.22
 36.80    5139   71.69
 36.81    5134   71.65
 36.82    5209   72.17
 36.83    5224   72.28
 36.84    5231   72.33
 36.85    5190   72.04
 36.86    5302   72.81
 36.87    5246   72.43
 36.88    5358   73.20
 36.89    5408   73.54
 36.90    5342   73.09
 36.91    5422   73.63
 36.92    5392   73.43
 36.93    5615   74.93
 36.94    5592   74.78
 36.95    5585   74.73
 36.96    5639   75.09
 36.97    5767   75.94
 36.98    5708   75.55
 36.99    5840   76.42
 37.00    5902   76.82
 37.01    5968   77.25
 37.02    6078   77.96
 37.03    6282   79.26
 37.04    6513   80.70
 37.05    6620   81.36
 37.06    6758   82.21
 37.07    6973   83.50
 37.08    7155   84.59
 37.09    7299   85.43
 37.10    7324   85.58
 37.11    7441   86.26
 37.12    7302   85.45
 37.13    7313   85.52
 37.14    7293   85.40
 37.15    7270   85.26
 37.16    7098   84.25
 37.17    7049   83.96
 37.18    6879   82.94
 37.19    6711   81.92
 37.20    6463   80.39
 37.21    6503   80.64
 37.22    6291   79.32
 37.23    6266   79.16
 37.24    6208   78.79
 37.25    6238   78.98
 37.26    6258   79.11
 37.27    6328   79.55
 37.28    6456   80.35
 37.29    6783   82.36
 37.30    7097   84.24
 37.31    7313   85.52
 37.32    7139   84.49
 37.33    7162   84.63
 37.34    6915   83.16
 37.35    6829   82.64
 37.36    6754   82.18
 37.37    6577   81.10
 37.38    6505   80.65
 37.39    6359   79.74
 37.40    6370   79.81
 37.41    6246   79.03
 37.42    6278   79.23
 37.43    6294   79.33
 37.44    6156   78.46
 37.45    6112   78.18
 37.46    6134   78.32
 37.47    6026   77.63
 37.48    6084   78.00
 37.49    5897   76.79
 37.50    6050   77.78
 37.51    5914   76.90
 37.52    5835   76.39
 37.53    5866   76.59
 37.54    5649   75.16
 37.55    5782   76.04
 37.56    5655   75.20
 37.57    5613   74.92
 37.58    5418   73.61
 37.59    5479   74.02
 37.60    5471   73.97
 37.61    5517   74.28
 37.62    5413   73.57
 37.63    5449   73.82
 37.64    5376   73.32
 37.65    5539   74.42
 37.66    5678   75.35
 37.67    5604   74.86
 37.68    5674   75.33
 37.69    5781   76.03
 37.70    5795   76.12
 37.71    5927   76.99
 37.72    5960   77.20
 37.73    5876   76.66
 37.74    5814   76.25
 37.75    5777   76.01
 37.76    5743   75.78
 37.77    5740   75.76
 37.78    5664   75.26
 37.79    5601   74.84
 37.80    5676   75.34
 37.81    5572   74.65
 37.82    5464   73.92
 37.83    5424   73.65
 37.84    5421   73.63
 37.85    5328   72.99
 37.86    5331   73.01
 37.87    5371   73.29
 37.88    5294   72.76
 37.89    5440   73.76
 37.90    5442   73.77
 37.91    5455   73.86
 37.92    5586   74.74
 37.93    5770   75.96
 37.94    5698   75.49
 37.95    5831   76.36
 37.96    5828   76.34
 37.97    5872   76.63
 37.98    5789   76.09
 37.99    5640   75.10
 38.00    5638   75.09
 38.01    5545   74.46
 38.02    5439   73.75
 38.03    5417   73.60
 38.04    5379   73.34
 38.05    5346   73.12
 38.06    5402   73.50
 38.07    5253   72.48
 38.08    5321   72.95
 38.09    5316   72.91
 38.10    5389   73.41
 38.11    5327   72.99
 38.12    5381   73.36
 38.13    5427   73.67
 38.14    5430   73.69
 38.15    5339   73.07
 38.16    5624   74.99
 38.17    5607   74.88
 38.18    5785   76.06
 38.19    5762   75.91
 38.20    5912   76.89
 38.21    6098   78.09
 38.22    6212   78.82
 38.23    6604   81.26
 38.24    6726   82.01
 38.25    6813   82.54
 38.26    6866   82.86
 38.27    6817   82.57
 38.28    6730   82.04
 38.29    6521   80.75
 38.30    6463   80.39
 38.31    6364   79.77
 38.32    6231   78.94
 38.33    6080   77.97
 38.34    5994   77.42
 38.35    5969   77.26
 38.36    5924   76.97
 38.37    5927   76.99
 38.38    5903   76.83
 38.39    5957   77.18
 38.40    6173   78.57
 38.41    6098   78.09
 38.42    6106   78.14
 38.43    6292   79.32
 38.44    6200   78.74
 38.45    6416   80.10
 38.46    6268   79.17
 38.47    6498   80.61
 38.48    6330   79.56
 38.49    6506   80.66
 38.50    6482   80.51
 38.51    6576   81.09
 38.52    6747   82.14
 38.53    6915   83.16
 38.54    7190   84.79
 38.55    7507   86.64
 38.56    8207   90.59
 38.57    8968   94.70
 38.58    9609   98.03
 38.59   10058  100.29
 38.60    9928   99.64
 38.61    9690   98.44
 38.62    9045   95.11
 38.63    8183   90.46
 38.64    7517   86.70
 38.65    6994   83.63
 38.66    6631   81.43
 38.67    6427   80.17
 38.68    6464   80.40
 38.69    6296   79.35
 38.70    6207   78.78
 38.71    6221   78.87
 38.72    6261   79.13
 38.73    6293   79.33
 38.74    6166   78.52
 38.75    6281   79.25
 38.76    6219   78.86
 38.77    6208   78.79
 38.78    6191   78.68
 38.79    6123   78.25
 38.80    6186   78.65
 38.81    6092   78.05
 38.82    6024   77.61
 38.83    6074   77.94
 38.84    6055   77.81
 38.85    6183   78.63
 38.86    6146   78.40
 38.87    6219   78.86
 38.88    6321   79.50
 38.89    6356   79.72
 38.90    6464   80.40
 38.91    6418   80.11
 38.92    6515   80.72
 38.93    6450   80.31
 38.94    6353   79.71
 38.95    6377   79.86
 38.96    6342   79.64
 38.97    6195   78.71
 38.98    6363   79.77
 38.99    6246   79.03
 39.00    6253   79.08
 39.01    6129   78.29
 39.02    6279   79.24
 39.03    6260   79.12
 39.04    6296   79.35
 39.05    6165   78.52
 39.06    6089   78.03
 39.07    5976   77.30
 39.08    6155   78.45
 39.09    5912   76.89
 39.10    5926   76.98
 39.11    6035   77.69
 39.12    6069   77.90
 39.13    6080   77.97
 39.14    6105   78.13
 39.15    6226   78.91
 39.16    6333   79.58
 39.17    6533   80.83
 39.18    6549   80.93
 39.19    6642   81.50
 39.20    6622   81.38
 39.21    6646   81.52
 39.22    6619   81.36
 39.23    6606   81.28
 39.24    6524   80.77
 39.25    6492   80.57
 39.26    6536   80.85
 39.27    6517   80.73
 39.28    6591   81.18
 39.29    6730   82.04
 39.30    6949   83.36
 39.31    7294   85.40
 39.32    7659   87.52
 39.33    8165   90.36
 39.34    8822   93.93
 39.35    9278   96.32
 39.36    9530   97.62
 39.37    9550   97.72
 39.38    9093   95.36
 39.39    8662   93.07
 39.40    7968   89.26
 39.41    7399   86.02
 39.42    6915   83.16
 39.43    6580   81.12
 39.44    6246   79.03
 39.45    6169   78.54
 39.46    6051   77.79
 39.47    5992   77.41
 39.48    5976   77.30
 39.49    5947   77.12
 39.50    5901   76.82
 39.51    5925   76.97
 39.52    5906   76.85
 39.53    6071   77.92
 39.54    5987   77.38
 39.55    5947   77.12
 39.56    6087   78.02
 39.57    6113   78.19
 39.58    6266   79.16
 39.59    6470   80.44
 39.60    6587   81.16
 39.61    6687   81.77
 39.62    6981   83.55
 39.63    7223   84.99
 39.64    7290   85.38
 39.65    7643   87.42
 39.66    7775   88.18
 39.67    7890   88.83
 39.68    7981   89.34
 39.69    7553   86.91
 39.70    7475   86.46
 39.71    6986   83.58
 39.72    6594   81.20
 39.73    6296   79.35
 39.74    6151   78.43
 39.75    5985   77.36
 39.76    5853   76.50
 39.77    5722   75.64
 39.78    5705   75.53
 39.79    5618   74.95
 39.80    5589   74.76
 39.81    5516   74.27
 39.82    5500   74.16
 39.83    5483   74.05
 39.84    5563   74.59
 39.85    5528   74.35
 39.86    5397   73.46
 39.87    5417   73.60
 39.88    5525   74.33
 39.89    5531   74.37
 39.90    5410   73.55
 39.91    5569   74.63
 39.92    5337   73.05
 39.93    5401   73.49
 39.94    5456   73.86
 39.95    5440   73.76
 39.96    5538   74.42
 39.97    5546   74.47
 39.98    5683   75.39
 39.99    5688   75.42
 40.00    5807   76.20
 40.01    5925   76.97
 40.02    6055   77.81
 40.03    6247   79.04
 40.04    6438   80.24
 40.05    6581   81.12
 40.06    6692   81.80
 40.07    6894   83.03
 40.08    6943   83.32
 40.09    7005   83.70
 40.10    7182   84.75
 40.11    7141   84.50
 40.12    7232   85.04
 40.13    7204   84.88
 40.14    6974   83.51
 40.15    6864   82.85
 40.16    6712   81.93
 40.17    6574   81.08
 40.18    6320   79.50
 40.19    6183   78.63
 40.20    6212   78.82
 40.21    6128   78.28
 40.22    5943   77.09
 40.23    6022   77.60
 40.24    6059   77.84
 40.25    5975   77.30
 40.26    5891   76.75
 40.27    5794   76.12
 40.28    5940   77.07
 40.29    5845   76.45
 40.30    5889   76.74
 40.31    5837   76.40
 40.32    5865   76.58
 40.33    5802   76.17
 40.34    5802   76.17
 40.35    5789   76.09
 40.36    5639   75.09
 40.37    5716   75.60
 40.38    5664   75.26
 40.39    5507   74.21
 40.40    5489   74.09
 40.41    5641   75.11
 40.42    5631   75.04
 40.43    5718   75.62
 40.44    5793   76.11
 40.45    5705   75.53
 40.46    5782   76.04
 40.47    5826   76.33
 40.48    5890   76.75
 40.49    5962   77.21
 40.50    6140   78.36
 40.51    6137   78.34
 40.52    6247   79.04
 40.53    6281   79.25
 40.54    6374   79.84
 40.55    6500   80.62
 40.56    6832   82.66
 40.57    6957   83.41
 40.58    7262   85.22
 40.59    7394   85.99
 40.60    7225   85.00
 40.61    7275   85.29
 40.62    7378   85.90
 40.63    7304   85.46
 40.64    7274   85.29
 40.65    7229   85.02
 40.66    7150   84.56
 40.67    7117   84.36
 40.68    7163   84.63
 40.69    6973   83.50
 40.70    6995   83.64
 40.71    7105   84.29
 40.72    7089   84.20
 40.73    7059   84.02
 40.74    7204   84.88
 40.75    7122   84.39
 40.76    7199   84.85
 40.77    7191   84.80
 40.78    6957   83.41
 40.79    6962   83.44
 40.80    6836   82.68
 40.81    6596   81.22
 40.82    6552   80.94
 40.83    6414   80.09
 40.84    6354   79.71
 40.85    6272   79.20
 40.86    6278   79.23
 40.87    6113   78.19
 40.88    5991   77.40
 40.89    6026   77.63
 40.90    5963   77.22
 40.91    5872   76.63
 40.92    5840   76.42
 40.93    5778   76.01
 40.94    5687   75.41
 40.95    5620   74.97
 40.96    5494   74.12
 40.97    5579   74.69
 40.98    5465   73.93
 40.99    5457   73.87
 41.00    5423   73.64
 41.01    5435   73.72
 41.02    5417   73.60
 41.03    5425   73.65
 41.04    5433   73.71
 41.05    5295   72.77
 41.06    5315   72.90
 41.07    5360   73.21
 41.08    5306   72.84
 41.09    5308   72.86
 41.10    5398   73.47
 41.11    5453   73.84
 41.12    5531   74.37
 41.13    5399   73.48
 41.14    5524   74.32
 41.15    5605   74.87
 41.16    5779   76.02
 41.17    5881   76.69
 41.18    5994   77.42
 41.19    6280   79.25
 41.20    6321   79.50
 41.21    6387   79.92
 41.22    6513   80.70
 41.23    6661   81.61
 41.24    6566   81.03
 41.25    6513   80.70
 41.26    6331   79.57
 41.27    6221   78.87
 41.28    6108   78.15
 41.29    5949   77.13
 41.30    6088   78.03
 41.31    5956   77.18
 41.32    6037   77.70
 41.33    5953   77.16
 41.34    5929   77.00
 41.35    5916   76.92
 41.36    6019   77.58
 41.37    6024   77.61
 41.38    6062   77.86
 41.39    6101   78.11
 41.40    6162   78.50
 41.41    6183   78.63
 41.42    6222   78.88
 41.43    6201   78.75
 41.44    6169   78.54
 41.45    6195   78.71
 41.46    6458   80.36
 41.47    6503   80.64
 41.48    6686   81.77
 41.49    6914   83.15
 41.50    7134   84.46
 41.51    7478   86.48
 41.52    7905   88.91
 41.53    8322   91.22
 41.54    8688   93.21
 41.55    9045   95.11
 41.56    9121   95.50
 41.57    9297   96.42
 41.58    9236   96.10
 41.59    9114   95.47
 41.60    9141   95.61
 41.61    8942   94.56
 41.62    8709   93.32
 41.63    8352   91.39
 41.64    8168   90.38
 41.65    7921   89.00
 41.66    7767   88.13
 41.67    7485   86.52
 41.68    7629   87.34
 41.69    7484   86.51
 41.70    7545   86.86
 41.71    7390   85.97
 41.72    7368   85.84
 41.73    7211   84.92
 41.74    7290   85.38
 41.75    7029   83.84
 41.76    7004   83.69
 41.77    7053   83.98
 41.78    7019   83.78
 41.79    6969   83.48
 41.80    7188   84.78
 41.81    7232   85.04
 41.82    7603   87.20
 41.83    7927   89.03
 41.84    8281   91.00
 41.85    8552   92.48
 41.86    9137   95.59
 41.87    9892   99.46
 41.88   10542  102.67
 41.89   11256  106.09
 41.90   11944  109.29
 41.91   12219  110.54
 41.92   12138  110.17
 41.93   11695  108.14
 41.94   11184  105.75
 41.95   10344  101.71
 41.96    9589   97.92
 41.97    8894   94.31
 41.98    8243   90.79
 41.99    7698   87.74
 42.00    7269   85.26
 42.01    7112   84.33
 42.02    6795   82.43
 42.03    6832   82.66
 42.04    6645   81.52
 42.05    6546   80.91
 42.06    6442   80.26
 42.07    6446   80.29
 42.08    6370   79.81
 42.09    6310   79.44
 42.10    6387   79.92
 42.11    6442   80.26
 42.12    6500   80.62
 42.13    6593   81.20
 42.14    6647   81.53
 42.15    6713   81.93
 42.16    6922   83.20
 42.17    6983   83.56
 42.18    7243   85.11
 42.19    7469   86.42
 42.20    7645   87.44
 42.21    7932   89.06
 42.22    8195   90.53
 42.23    8374   91.51
 42.24    8455   91.95
 42.25    8577   92.61
 42.26    8679   93.16
 42.27    8571   92.58
 42.28    8440   91.87
 42.29    8187   90.48
 42.30    7802   88.33
 42.31    7662   87.53
 42.32    7444   86.28
 42.33    7215   84.94
 42.34    7104   84.29
 42.35    7031   83.85
 42.36    6826   82.62
 42.37    6830   82.64
 42.38    6742   82.11
 42.39    7050   83.96
 42.40    7078   84.13
 42.41    7052   83.98
 42.42    6939   83.30
 42.43    6841   82.71
 42.44    6686   81.77
 42.45    6432   80.20
 42.46    6284   79.27
 42.47    6132   78.31
 42.48    5887   76.73
 42.49    5991   77.40
 42.50    5883   76.70
 42.51    5762   75.91
 42.52    5690   75.43
 42.53    5780   76.03
 42.54    5669   75.29
 42.55    5625   75.00
 42.56    5543   74.45
 42.57    5647   75.15
 42.58    5535   74.40
 42.59    5557   74.55
 42.60    5566   74.61
 42.61    5488   74.08
 42.62    5490   74.09
 42.63    5584   74.73
 42.64    5513   74.25
 42.65    5584   74.73
 42.66    5611   74.91
 42.67    5566   74.61
 42.68    5652   75.18
 42.69    5733   75.72
 42.70    5866   76.59
 42.71    5657   75.21
 42.72    5863   76.57
 42.73    5833   76.37
 42.74    5796   76.13
 42.75    5848   76.47
 42.76    5768   75.95
 42.77    5774   75.99
 42.78    5805   76.19
 42.79    5726   75.67
 42.80    5761   75.90
 42.81    5906   76.85
 42.82    5935   77.04
 42.83    5863   76.57
 42.84    5890   76.75
 42.85    5876   76.66
 42.86    5889   76.74
 42.87    6003   77.48
 42.88    6149   78.42
 42.89    6116   78.20
 42.90    6282   79.26
 42.91    6213   78.82
 42.92    6424   80.15
 42.93    6621   81.37
 42.94    6826   82.62
 42.95    6916   83.16
 42.96    7197   84.84
 42.97    7431   86.20
 42.98    7518   86.71
 42.99    7607   87.22
 43.00    7620   87.29
 43.01    7580   87.06
 43.02    7573   87.02
 43.03    7421   86.15
 43.04    7147   84.54
 43.05    6968   83.47
 43.06    6963   83.44
 43.07    6728   82.02
 43.08    6501   80.63
 43.09    6348   79.67
 43.10    6184   78.64
 43.11    6274   79.21
 43.12    6139   78.35
 43.13    6016   77.56
 43.14    6044   77.74
 43.15    6058   77.83
 43.16    5906   76.85
 43.17    5943   77.09
 43.18    5889   76.74
 43.19    5941   77.08
 43.20    5866   76.59
 43.21    5874   76.64
 43.22    5906   76.85
 43.23    5965   77.23
 43.24    6155   78.45
 43.25    6138   78.35
 43.26    6259   79.11
 43.27    6142   78.37
 43.28    6285   79.28
 43.29    6342   79.64
 43.30    6319   79.49
 43.31    6421   80.13
 43.32    6559   80.99
 43.33    6652   81.56
 43.34    6775   82.31
 43.35    6878   82.93
 43.36    6978   83.53
 43.37    7169   84.67
 43.38    7388   85.95
 43.39    7650   87.46
 43.40    7865   88.68
 43.41    8162   90.34
 43.42    8406   91.68
 43.43    8593   92.70
 43.44    8917   94.43
 43.45    8827   93.95
 43.46    8803   93.82
 43.47    8957   94.64
 43.48    8509   92.24
 43.49    8242   90.79
 43.50    8049   89.72
 43.51    7599   87.17
 43.52    7391   85.97
 43.53    7268   85.25
 43.54    6995   83.64
 43.55    6786   82.38
 43.56    6596   81.22
 43.57    6581   81.12
 43.58    6401   80.01
 43.59    6274   79.21
 43.60    6320   79.50
 43.61    6053   77.80
 43.62    6106   78.14
 43.63    6133   78.31
 43.64    6096   78.08
 43.65    6145   78.39
 43.66    6009   77.52
 43.67    6077   77.96
 43.68    6256   79.09
 43.69    6143   78.38
 43.70    6203   78.76
 43.71    6489   80.55
 43.72    6567   81.04
 43.73    6581   81.12
 43.74    6883   82.96
 43.75    7119   84.37
 43.76    7565   86.98
 43.77    7667   87.56
 43.78    8290   91.05
 43.79    8532   92.37
 43.80    8866   94.16
 43.81    8986   94.79
 43.82    9120   95.50
 43.83    8763   93.61
 43.84    8594   92.70
 43.85    8494   92.16
 43.86    8228   90.71
 43.87    7938   89.10
 43.88    7983   89.35
 43.89    7761   88.10
 43.90    7631   87.36
 43.91    7550   86.89
 43.92    7276   85.30
 43.93    6974   83.51
 43.94    6605   81.27
 43.95    6339   79.62
 43.96    6430   80.19
 43.97    6232   78.94
 43.98    6187   78.66
 43.99    6186   78.65
 44.00    6093   78.06
 44.01    6081   77.98
 44.02    5963   77.22
 44.03    6131   78.30
 44.04    6102   78.12
 44.05    6219   78.86
 44.06    6226   78.91
 44.07    6360   79.75
 44.08    6580   81.12
 44.09    6982   83.56
 44.10    7264   85.23
 44.11    7446   86.29
 44.12    7521   86.72
 44.13    7469   86.42
 44.14    7445   86.28
 44.15    7149   84.55
 44.16    6929   83.24
 44.17    6721   81.98
 44.18    6402   80.01
 44.19    6344   79.65
 44.20    6181   78.62
 44.21    6229   78.92
 44.22    6172   78.56
 44.23    6140   78.36
 44.24    6010   77.52
 44.25    6067   77.89
 44.26    5994   77.42
 44.27    5972   77.28
 44.28    6060   77.85
 44.29    6120   78.23
 44.30    6199   78.73
 44.31    6245   79.03
 44.32    6321   79.50
 44.33    6425   80.16
 44.34    6568   81.04
 44.35    6656   81.58
 44.36    6944   83.33
 44.37    7162   84.63
 44.38    7260   85.21
 44.39    7573   87.02
 44.40    7812   88.39
 44.41    8012   89.51
 44.42    8231   90.72
 44.43    8378   91.53
 44.44    8507   92.23
 44.45    8439   91.86
 44.46    8612   92.80
 44.47    8428   91.80
 44.48    8338   91.31
 44.49    8075   89.86
 44.50    7886   88.80
 44.51    7710   87.81
 44.52    7525   86.75
 44.53    7218   84.96
 44.54    7017   83.77
 44.55    6938   83.29
 44.56    6777   82.32
 44.57    6522   80.76
 44.58    6489   80.55
 44.59    6241   79.00
 44.60    6185   78.64
 44.61    6110   78.17
 44.62    6046   77.76
 44.63    6032   77.67
 44.64    5985   77.36
 44.65    5914   76.90
 44.66    5917   76.92
 44.67    5892   76.76
 44.68    5869   76.61
 44.69    5787   76.07
 44.70    5761   75.90
 44.71    5784   76.05
 44.72    5893   76.77
 44.73    5994   77.42
 44.74    6067   77.89
 44.75    6111   78.17
 44.76    6280   79.25
 44.77    6337   79.61
 44.78    6445   80.28
 44.79    6722   81.99
 44.80    6696   81.83
 44.81    6838   82.69
 44.82    6682   81.74
 44.83    6532   80.82
 44.84    6437   80.23
 44.85    6217   78.85
 44.86    6082   77.99
 44.87    5949   77.13
 44.88    5965   77.23
 44.89    5946   77.11
 44.90    5936   77.05
 44.91    6054   77.81
 44.92    6220   78.87
 44.93    6373   79.83
 44.94    6500   80.62
 44.95    6400   80.00
 44.96    6507   80.67
 44.97    6696   81.83
 44.98    6740   82.10
 44.99    6738   82.09
 45.00    6829   82.64
 45.01    6743   82.12
 45.02    6792   82.41
 45.03    6826   82.62
 45.04    6789   82.40
 45.05    6805   82.49
 45.06    6853   82.78
 45.07    6926   83.22
 45.08    6688   81.78
 45.09    6603   81.26
 45.10    6536   80.85
 45.11    6468   80.42
 45.12    6421   80.13
 45.13    6366   79.79
 45.14    6446   80.29
 45.15    6530   80.81
 45.16    6403   80.02
 45.17    6476   80.47
 45.18    6565   81.02
 45.19    6571   81.06
 45.20    6799   82.46
 45.21    6865   82.86
 45.22    7057   84.01
 45.23    7311   85.50
 45.24    7498   86.59
 45.25    7606   87.21
 45.26    7796   88.29
 45.27    8048   89.71
 45.28    8251   90.84
 45.29    8009   89.49
 45.30    7949   89.16
 45.31    7821   88.44
 45.32    7508   86.65
 45.33    7360   85.79
 45.34    7135   84.47
 45.35    6885   82.98
 45.36    6881   82.95
 45.37    6669   81.66
 45.38    6691   81.80
 45.39    6697   81.84
 45.40    6679   81.73
 45.41    6599   81.23
 45.42    6478   80.49
 45.43    6479   80.49
 45.44    6596   81.22
 45.45    6475   80.47
 45.46    6558   80.98
 45.47    6396   79.97
 45.48    6468   80.42
 45.49    6441   80.26
 45.50    6430   80.19
 45.51    6377   79.86
 45.52    6528   80.80
 45.53    6461   80.38
 45.54    6497   80.60
 45.55    6455   80.34
 45.56    6628   81.41
 45.57    6691   81.80
 45.58    6584   81.14
 45.59    6452   80.32
 45.60    6699   81.85
 45.61    6563   81.01
 45.62    6470   80.44
 45.63    6478   80.49
 45.64    6577   81.10
 45.65    6456   80.35
 45.66    6456   80.35
 45.67    6512   80.70
 45.68    6585   81.15
 45.69    6555   80.96
 45.70    6525   80.78
 45.71    6486   80.54
 45.72    6467   80.42
 45.73    6346   79.66
 45.74    6351   79.69
 45.75    6193   78.70
 45.76    6214   78.83
 45.77    6098   78.09
 45.78    5983   77.35
 45.79    5869   76.61
 45.80    5919   76.94
 45.81    5854   76.51
 45.82    5577   74.68
 45.83    5637   75.08
 45.84    5560   74.57
 45.85    5496   74.14
 45.86    5520   74.30
 45.87    5618   74.95
 45.88    5461   73.90
 45.89    5462   73.91
 45.90    5455   73.86
 45.91    5417   73.60
 45.92    5328   72.99
 45.93    5434   73.72
 45.94    5367   73.26
 45.95    5195   72.08
 45.96    5255   72.49
 45.97    5186   72.01
 45.98    5238   72.37
 45.99    5239   72.38
 46.00    5228   72.30
 46.01    5167   71.88
 46.02    5301   72.81
 46.03    5252   72.47
 46.04    5232   72.33
 46.05    5285   72.70
 46.06    5154   71.79
 46.07    5219   72.24
 46.08    5271   72.60
 46.09    5188   72.03
 46.10    5159   71.83
 46.11    5276   72.64
 46.12    5153   71.78
 46.13    5216   72.22
 46.14    5171   71.91
 46.15    5205   72.15
 46.16    5238   72.37
 46.17    5233   72.34
 46.18    5347   73.12
 46.19    5240   72.39
 46.20    5269   72.59
 46.21    5221   72.26
 46.22    5304   72.83
 46.23    5333   73.03
 46.24    5374   73.31
 46.25    5458   73.88
 46.26    5444   73.78
 46.27    5314   72.90
 46.28    5506   74.20
 46.29    5534   74.39
 46.30    5510   74.23
 46.31    5443   73.78
 46.32    5502   74.18
 46.33    5580   74.70
 46.34    5517   74.28
 46.35    5673   75.32
 46.36    5621   74.97
 46.37    5680   75.37
 46.38    5633   75.05
 46.39    5595   74.80
 46.40    5716   75.60
 46.41    5701   75.50
 46.42    5859   76.54
 46.43    5994   77.42
 46.44    6002   77.47
 46.45    6081   77.98
 46.46    6157   78.47
 46.47    6235   78.96
 46.48    6079   77.97
 46.49    6098   78.09
 46.50    5937   77.05
 46.51    5907   76.86
 46.52    5826   76.33
 46.53    5787   76.07
 46.54    5619   74.96
 46.55    5487   74.07
 46.56    5439   73.75
 46.57    5440   73.76
 46.58    5413   73.57
 46.59    5448   73.81
 46.60    5538   74.42
 46.61    5484   74.05
 46.62    5571   74.64
 46.63    5655   75.20
 46.64    5669   75.29
 46.65    5685   75.40
 46.66    5862   76.56
 46.67    6022   77.60
 46.68    6201   78.75
 46.69    6326   79.54
 46.70    6512   80.70
 46.71    6594   81.20
 46.72    6664   81.63
 46.73    6606   81.28
 46.74    6426   80.16
 46.75    6239   78.99
 46.76    6131   78.30
 46.77    5967   77.25
 46.78    5816   76.26
 46.79    5671   75.31
 46.80    5669   75.29
 46.81    5546   74.47
 46.82    5448   73.81
 46.83    5382   73.36
 46.84    5489   74.09
 46.85    5408   73.54
 46.86    5467   73.94
 46.87    5407   73.53
 46.88    5386   73.39
 46.89    5263   72.55
 46.90    5464   73.92
 46.91    5379   73.34
 46.92    5366   73.25
 46.93    5364   73.24
 46.94    5375   73.31
 46.95    5505   74.20
 46.96    5660   75.23
 46.97    5662   75.25
 46.98    5750   75.83
 46.99    5883   76.70
 47.00    5918   76.93
 47.01    5923   76.96
 47.02    6036   77.69
 47.03    5867   76.60
 47.04    5829   76.35
 47.05    5841   76.43
 47.06    5723   75.65
 47.07    5635   75.07
 47.08    5667   75.28
 47.09    5781   76.03
 47.10    5839   76.41
 47.11    5729   75.69
 47.12    5682   75.38
 47.13    5778   76.01
 47.14    5758   75.88
 47.15    5560   74.57
 47.16    5643   75.12
 47.17    5594   74.79
 47.18    5514   74.26
 47.19    5584   74.73
 47.20    5569   74.63
 47.21    5574   74.66
 47.22    5614   74.93
 47.23    5667   75.28
 47.24    5664   75.26
 47.25    5914   76.90
 47.26    5983   77.35
 47.27    5930   77.01
 47.28    5951   77.14
 47.29    5904   76.84
 47.30    5823   76.31
 47.31    5636   75.07
 47.32    5615   74.93
 47.33    5450   73.82
 47.34    5505   74.20
 47.35    5406   73.53
 47.36    5344   73.10
 47.37    5353   73.16
 47.38    5359   73.21
 47.39    5322   72.95
 47.40    5368   73.27
 47.41    5299   72.79
 47.42    5325   72.97
 47.43    5439   73.75
 47.44    5590   74.77
 47.45    5686   75.41
 47.46    5648   75.15
 47.47    5650   75.17
 47.48    5619   74.96
 47.49    5618   74.95
 47.50    5807   76.20
 47.51    5651   75.17
 47.52    5761   75.90
 47.53    5729   75.69
 47.54    5755   75.86
 47.55    5797   76.14
 47.56    5784   76.05
 47.57    5646   75.14
 47.58    5682   75.38
 47.59    5644   75.13
 47.60    5601   74.84
 47.61    5432   73.70
 47.62    5560   74.57
 47.63    5528   74.35
 47.64    5453   73.84
 47.65    5434   73.72
 47.66    5478   74.01
 47.67    5472   73.97
 47.68    5405   73.52
 47.69    5407   73.53
 47.70    5434   73.72
 47.71    5351   73.15
 47.72    5241   72.39
 47.73    5302   72.81
 47.74    5464   73.92
 47.75    5334   73.03
 47.76    5295   72.77
 47.77    5246   72.43
 47.78    5400   73.48
 47.79    5292   72.75
 47.80    5368   73.27
 47.81    5329   73.00
 47.82    5288   72.72
 47.83    5349   73.14
 47.84    5397   73.46
 47.85    5313   72.89
 47.86    5253   72.48
 47.87    5334   73.03
 47.88    5425   73.65
 47.89    5284   72.69
 47.90    5292   72.75
 47.91    5260   72.53
 47.92    5295   72.77
 47.93    5280   72.66
 47.94    5377   73.33
 47.95    5293   72.75
 47.96    5268   72.58
 47.97    5204   72.14
 47.98    5280   72.66
 47.99    5245   72.42
 48.00    5263   72.55
 48.01    5292   72.75
 48.02    5280   72.66
 48.03    5167   71.88
 48.04    5306   72.84
 48.05    5249   72.45
 48.06    5253   72.48
 48.07    5455   73.86
 48.08    5348   73.13
 48.09    5397   73.46
 48.10    5444   73.78
 48.11    5358   73.20
 48.12    5363   73.23
 48.13    5340   73.08
 48.14    5359   73.21
 48.15    5419   73.61
 48.16    5421   73.63
 48.17    5323   72.96
 48.18    5281   72.67
 48.19    5310   72.87
 48.20    5346   73.12
 48.21    5448   73.81
 48.22    5411   73.56
 48.23    5331   73.01
 48.24    5262   72.54
 48.25    5252   72.47
 48.26    5118   71.54
 48.27    5086   71.32
 48.28    5109   71.48
 48.29    5140   71.69
 48.30    5100   71.41
 48.31    5188   72.03
 48.32    5042   71.01
 48.33    5092   71.36
 48.34    5035   70.96
 48.35    4962   70.44
 48.36    4979   70.56
 48.37    4916   70.11
 48.38    4944   70.31
 48.39    4977   70.55
 48.40    4951   70.36
 48.41    4934   70.24
 48.42    4979   70.56
 48.43    4933   70.24
 48.44    4955   70.39
 48.45    4949   70.35
 48.46    4961   70.43
 48.47    4935   70.25
 48.48    4854   69.67
 48.49    4841   69.58
 48.50    4835   69.53
 48.51    4872   69.80
 48.52    4955   70.39
 48.53    4867   69.76
 48.54    4904   70.03
 48.55    4844   69.60
 48.56    5051   71.07
 48.57    5050   71.06
 48.58    4979   70.56
 48.59    4906   70.04
 48.60    4979   70.56
 48.61    5021   70.86
 48.62    5036   70.96
 48.63    5082   71.29
 48.64    5203   72.13
 48.65    5155   71.80
 48.66    5196   72.08
 48.67    5223   72.27
 48.68    5233   72.34
 48.69    5493   74.11
 48.70    5470   73.96
 48.71    5602   74.85
 48.72    5724   75.66
 48.73    5783   76.05
 48.74    5914   76.90
 48.75    5916   76.92
 48.76    5899   76.80
 48.77    5775   75.99
 48.78    5720   75.63
 48.79    5541   74.44
 48.80    5453   73.84
 48.81    5490   74.09
 48.82    5491   74.10
 48.83    5502   74.18
 48.84    5450   73.82
 48.85    5392   73.43
 48.86    5338   73.06
 48.87    5365   73.25
 48.88    5234   72.35
 48.89    5130   71.62
 48.90    5228   72.30
 48.91    5180   71.97
 48.92    5175   71.94
 48.93    5186   72.01
 48.94    5337   73.05
 48.95    5337   73.05
 48.96    5400   73.48
 48.97    5341   73.08
 48.98    5481   74.03
 48.99    5470   73.96
 49.00    5515   74.26
 49.01    5594   74.79
 49.02    5596   74.81
 49.03    5715   75.60
 49.04    5755   75.86
 49.05    5870   76.62
 49.06    5728   75.68
 49.07    5813   76.24
 49.08    5684   75.39
 49.09    5614   74.93
 49.10    5487   74.07
 49.11    5639   75.09
 49.12    5605   74.87
 49.13    5490   74.09
 49.14    5462   73.91
 49.15    5485   74.06
 49.16    5429   73.68
 49.17    5416   73.59
 49.18    5471   73.97
 49.19    5462   73.91
 49.20    5383   73.37
 49.21    5481   74.03
 49.22    5549   74.49
 49.23    5410   73.55
 49.24    5476   74.00
 49.25    5422   73.63
 49.26    5436   73.73
 49.27    5395   73.45
 49.28    5414   73.58
 49.29    5500   74.16
 49.30    5567   74.61
 49.31    5633   75.05
 49.32    5690   75.43
 49.33    5712   75.58
 49.34    5727   75.68
 49.35    5774   75.99
 49.36    5631   75.04
 49.37    5539   74.42
 49.38    5356   73.18
 49.39    5376   73.32
 49.40    5441   73.76
 49.41    5243   72.41
 49.42    5259   72.52
 49.43    5133   71.64
 49.44    5184   72.00
 49.45    5047   71.04
 49.46    5124   71.58
 49.47    5046   71.04
 49.48    5026   70.89
 49.49    5043   71.01
 49.50    5124   71.58
 49.51    5134   71.65
 49.52    5087   71.32
 49.53    5032   70.94
 49.54    4997   70.69
 49.55    5059   71.13
 49.56    4970   70.50
 49.57    5122   71.57
 49.58    5096   71.39
 49.59    5182   71.99
 49.60    5218   72.24
 49.61    5327   72.99
 49.62    5347   73.12
 49.63    5354   73.17
 49.64    5463   73.91
 49.65    5562   74.58
 49.66    5501   74.17
 49.67    5678   75.35
 49.68    5676   75.34
 49.69    5783   76.05
 49.70    5604   74.86
 49.71    5649   75.16
 49.72    5496   74.14
 49.73    5566   74.61
 49.74    5592   74.78
 49.75    5493   74.11
 49.76    5396   73.46
 49.77    5503   74.18
 49.78    5515   74.26
 49.79    5499   74.16
 49.80    5332   73.02
 49.81    5383   73.37
 49.82    5366   73.25
 49.83    5326   72.98
 49.84    5374   73.31
 49.85    5373   73.30
 49.86    5251   72.46
 49.87    5170   71.90
 49.88    5148   71.75
 49.89    5229   72.31
 49.90    5298   72.79
 49.91    5267   72.57
 49.92    5299   72.79
 49.93    5242   72.40
 49.94    5272   72.61
 49.95    5249   72.45
 49.96    5423   73.64
 49.97    5306   72.84
 49.98    5369   73.27
 49.99    5358   73.20
 50.00    5403   73.51
END
