IGOR // wavelength 1.196175A
WAVES/O wave0, wave1, sqrt_of_wave1
BEGIN
 2.000     374   19.35
 2.005     362   19.03
 2.010     357   18.91
 2.015     363   19.05
 2.020     368   19.19
 2.025     371   19.27
 2.030     371   19.25
 2.035     373   19.31
 2.040     359   18.95
 2.045     367   19.16
 2.050     377   19.42
 2.055     366   19.14
 2.060     361   19.01
 2.065     393   19.82
 2.070     367   19.17
 2.075     366   19.14
 2.080     375   19.36
 2.085     355   18.85
 2.090     372   19.29
 2.095     377   19.41
 2.100     384   19.59
 2.105     399   19.98
 2.110     384   19.59
 2.115     386   19.64
 2.120     389   19.71
 2.125     382   19.54
 2.130     384   19.60
 2.135     385   19.63
 2.140     379   19.48
 2.145     395   19.87
 2.150     395   19.88
 2.155     391   19.78
 2.160     396   19.90
 2.165     393   19.83
 2.170     395   19.87
 2.175     402   20.05
 2.180     408   20.21
 2.185     394   19.86
 2.190     405   20.12
 2.195     410   20.24
 2.200     414   20.35
 2.205     393   19.82
 2.210     404   20.10
 2.215     414   20.34
 2.220     393   19.83
 2.225     398   19.94
 2.230     400   20.00
 2.235     397   19.92
 2.240     411   20.27
 2.245     405   20.11
 2.250     411   20.28
 2.255     416   20.39
 2.260     414   20.35
 2.265     423   20.56
 2.270     421   20.51
 2.275     404   20.10
 2.280     415   20.38
 2.285     416   20.39
 2.290     420   20.48
 2.295     414   20.34
 2.300     431   20.77
 2.305     405   20.12
 2.310     421   20.52
 2.315     420   20.50
 2.320     419   20.47
 2.325     415   20.37
 2.330     419   20.48
 2.335     446   21.12
 2.340     431   20.77
 2.345     422   20.54
 2.350     416   20.39
 2.355     423   20.58
 2.360     435   20.86
 2.365     435   20.86
 2.370     426   20.64
 2.375     442   21.03
 2.380     438   20.94
 2.385     430   20.73
 2.390     434   20.83
 2.395     440   20.97
 2.400     459   21.43
 2.405     426   20.64
 2.410     434   20.83
 2.415     461   21.46
 2.420     441   20.99
 2.425     431   20.76
 2.430     435   20.85
 2.435     429   20.71
 2.440     446   21.11
 2.445     423   20.56
 2.450     423   20.56
 2.455     438   20.93
 2.460     443   21.05
 2.465     438   20.92
 2.470     441   20.99
 2.475     444   21.08
 2.480     441   21.00
 2.485     436   20.88
 2.490     447   21.15
 2.495     438   20.92
 2.500     445   21.10
 2.505     458   21.41
 2.510     438   20.94
 2.515     436   20.88
 2.520     436   20.87
 2.525     437   20.90
 2.530     445   21.09
 2.535     444   21.08
 2.540     455   21.32
 2.545     459   21.42
 2.550     448   21.17
 2.555     448   21.17
 2.560     457   21.37
 2.565     453   21.28
 2.570     461   21.48
 2.575     473   21.74
 2.580     454   21.30
 2.585     450   21.22
 2.590     466   21.60
 2.595     466   21.59
 2.600     463   21.51
 2.605     465   21.56
 2.610     461   21.47
 2.615     452   21.25
 2.620     457   21.37
 2.625     462   21.50
 2.630     458   21.40
 2.635     470   21.68
 2.640     466   21.59
 2.645     455   21.33
 2.650     478   21.85
 2.655     472   21.74
 2.660     457   21.38
 2.665     465   21.56
 2.670     479   21.89
 2.675     495   22.24
 2.680     460   21.44
 2.685     454   21.31
 2.690     471   21.71
 2.695     466   21.59
 2.700     466   21.59
 2.705     478   21.86
 2.710     478   21.86
 2.715     467   21.60
 2.720     470   21.68
 2.725     486   22.05
 2.730     479   21.89
 2.735     491   22.17
 2.740     479   21.89
 2.745     465   21.57
 2.750     464   21.54
 2.755     477   21.85
 2.760     467   21.60
 2.765     465   21.56
 2.770     481   21.93
 2.775     471   21.71
 2.780     477   21.85
 2.785     488   22.08
 2.790     484   22.00
 2.795     472   21.72
 2.800     479   21.89
 2.805     489   22.12
 2.810     480   21.90
 2.815     493   22.20
 2.820     488   22.10
 2.825     476   21.81
 2.830     484   22.01
 2.835     484   22.00
 2.840     486   22.03
 2.845     499   22.33
 2.850     480   21.91
 2.855     488   22.09
 2.860     496   22.27
 2.865     490   22.13
 2.870     499   22.35
 2.875     503   22.43
 2.880     487   22.06
 2.885     499   22.34
 2.890     501   22.39
 2.895     498   22.32
 2.900     488   22.10
 2.905     509   22.56
 2.910     498   22.32
 2.915     491   22.15
 2.920     508   22.54
 2.925     503   22.44
 2.930     498   22.32
 2.935     491   22.15
 2.940     496   22.26
 2.945     494   22.23
 2.950     499   22.34
 2.955     490   22.14
 2.960     496   22.28
 2.965     510   22.58
 2.970     509   22.55
 2.975     490   22.13
 2.980     495   22.24
 2.985     504   22.46
 2.990     505   22.48
 2.995     487   22.07
 3.000     497   22.28
 3.005     516   22.72
 3.010     488   22.08
 3.015     503   22.43
 3.020     515   22.69
 3.025     505   22.47
 3.030     511   22.61
 3.035     512   22.62
 3.040     523   22.87
 3.045     524   22.89
 3.050     504   22.46
 3.055     492   22.18
 3.060     511   22.62
 3.065     502   22.41
 3.070     514   22.67
 3.075     505   22.48
 3.080     507   22.51
 3.085     509   22.55
 3.090     513   22.66
 3.095     534   23.11
 3.100     515   22.69
 3.105     515   22.70
 3.110     505   22.46
 3.115     511   22.60
 3.120     517   22.75
 3.125     507   22.51
 3.130     524   22.89
 3.135     521   22.83
 3.140     508   22.54
 3.145     514   22.67
 3.150     519   22.78
 3.155     516   22.72
 3.160     503   22.42
 3.165     520   22.81
 3.170     519   22.78
 3.175     493   22.20
 3.180     518   22.77
 3.185     522   22.86
 3.190     522   22.84
 3.195     518   22.76
 3.200     506   22.49
 3.205     517   22.74
 3.210     504   22.45
 3.215     496   22.28
 3.220     509   22.55
 3.225     507   22.52
 3.230     520   22.81
 3.235     503   22.43
 3.240     511   22.61
 3.245     514   22.68
 3.250     511   22.61
 3.255     513   22.64
 3.260     507   22.53
 3.265     510   22.59
 3.270     501   22.37
 3.275     508   22.53
 3.280     532   23.07
 3.285     528   22.97
 3.290     516   22.71
 3.295     513   22.64
 3.300     514   22.67
 3.305     520   22.80
 3.310     526   22.94
 3.315     527   22.96
 3.320     529   22.99
 3.325     539   23.21
 3.330     521   22.82
 3.335     536   23.15
 3.340     525   22.92
 3.345     528   22.98
 3.350     547   23.38
 3.355     529   22.99
 3.360     527   22.96
 3.365     555   23.56
 3.370     556   23.58
 3.375     567   23.82
 3.380     553   23.52
 3.385     568   23.83
 3.390     586   24.21
 3.395     581   24.10
 3.400     596   24.41
 3.405     594   24.38
 3.410     603   24.55
 3.415     605   24.60
 3.420     633   25.17
 3.425     648   25.46
 3.430     641   25.33
 3.435     671   25.91
 3.440     690   26.27
 3.445     688   26.24
 3.450     712   26.69
 3.455     726   26.94
 3.460     721   26.86
 3.465     775   27.84
 3.470     811   28.48
 3.475     819   28.62
 3.480     846   29.08
 3.485     875   29.58
 3.490     894   29.90
 3.495     946   30.76
 3.500     980   31.31
 3.505    1040   32.25
 3.510    1080   32.87
 3.515    1143   33.80
 3.520    1254   35.40
 3.525    1358   36.86
 3.530    1494   38.66
 3.535    1665   40.80
 3.540    1890   43.48
 3.545    2129   46.14
 3.550    2468   49.68
 3.555    2850   53.39
 3.560    2957   54.38
 3.565    2749   52.44
 3.570    2198   46.88
 3.575    1528   39.09
 3.580    1093   33.05
 3.585     854   29.23
 3.590     724   26.91
 3.595     685   26.17
 3.600     653   25.55
 3.605     608   24.66
 3.610     601   24.52
 3.615     585   24.18
 3.620     563   23.74
 3.625     584   24.16
 3.630     565   23.77
 3.635     535   23.14
 3.640     537   23.17
 3.645     545   23.34
 3.650     532   23.07
 3.655     540   23.25
 3.660     562   23.70
 3.665     545   23.35
 3.670     537   23.18
 3.675     553   23.51
 3.680     526   22.94
 3.685     524   22.88
 3.690     537   23.17
 3.695     521   22.83
 3.700     522   22.85
 3.705     531   23.04
 3.710     540   23.23
 3.715     521   22.83
 3.720     530   23.02
 3.725     523   22.87
 3.730     525   22.91
 3.735     511   22.60
 3.740     507   22.52
 3.745     516   22.73
 3.750     510   22.57
 3.755     514   22.68
 3.760     510   22.59
 3.765     508   22.55
 3.770     521   22.83
 3.775     524   22.89
 3.780     515   22.70
 3.785     513   22.65
 3.790     508   22.53
 3.795     517   22.73
 3.800     514   22.67
 3.805     520   22.81
 3.810     507   22.51
 3.815     523   22.88
 3.820     523   22.87
 3.825     518   22.76
 3.830     513   22.65
 3.835     511   22.61
 3.840     517   22.73
 3.845     505   22.48
 3.850     523   22.86
 3.855     524   22.89
 3.860     513   22.65
 3.865     520   22.80
 3.870     519   22.78
 3.875     509   22.55
 3.880     517   22.73
 3.885     519   22.78
 3.890     515   22.70
 3.895     513   22.64
 3.900     525   22.90
 3.905     508   22.53
 3.910     495   22.25
 3.915     514   22.67
 3.920     517   22.74
 3.925     504   22.45
 3.930     504   22.45
 3.935     515   22.69
 3.940     493   22.21
 3.945     491   22.15
 3.950     507   22.53
 3.955     509   22.55
 3.960     512   22.63
 3.965     518   22.77
 3.970     510   22.59
 3.975     506   22.50
 3.980     513   22.66
 3.985     515   22.70
 3.990     503   22.43
 3.995     513   22.64
 4.000     507   22.52
 4.005     504   22.44
 4.010     511   22.62
 4.015     515   22.70
 4.020     513   22.66
 4.025     496   22.28
 4.030     504   22.46
 4.035     516   22.72
 4.040     516   22.72
 4.045     501   22.38
 4.050     506   22.49
 4.055     511   22.60
 4.060     509   22.57
 4.065     499   22.34
 4.070     499   22.33
 4.075     522   22.85
 4.080     512   22.63
 4.085     506   22.49
 4.090     517   22.74
 4.095     503   22.42
 4.100     510   22.59
 4.105     528   22.97
 4.110     518   22.75
 4.115     507   22.51
 4.120     519   22.78
 4.125     514   22.66
 4.130     516   22.72
 4.135     516   22.72
 4.140     506   22.50
 4.145     523   22.87
 4.150     514   22.68
 4.155     531   23.04
 4.160     537   23.18
 4.165     519   22.79
 4.170     523   22.87
 4.175     535   23.13
 4.180     539   23.21
 4.185     545   23.35
 4.190     568   23.83
 4.195     564   23.74
 4.200     582   24.13
 4.205     607   24.64
 4.210     610   24.70
 4.215     625   24.99
 4.220     613   24.75
 4.225     584   24.16
 4.230     565   23.77
 4.235     536   23.16
 4.240     509   22.56
 4.245     512   22.62
 4.250     519   22.79
 4.255     513   22.66
 4.260     504   22.44
 4.265     507   22.51
 4.270     502   22.40
 4.275     493   22.21
 4.280     503   22.42
 4.285     501   22.39
 4.290     514   22.67
 4.295     516   22.72
 4.300     492   22.18
 4.305     491   22.17
 4.310     499   22.34
 4.315     502   22.41
 4.320     510   22.58
 4.325     495   22.25
 4.330     501   22.38
 4.335     507   22.52
 4.340     499   22.34
 4.345     497   22.29
 4.350     497   22.30
 4.355     495   22.26
 4.360     499   22.34
 4.365     508   22.53
 4.370     505   22.47
 4.375     499   22.34
 4.380     492   22.19
 4.385     509   22.56
 4.390     501   22.37
 4.395     507   22.51
 4.400     504   22.45
 4.405     482   21.95
 4.410     497   22.29
 4.415     492   22.18
 4.420     503   22.43
 4.425     487   22.07
 4.430     497   22.29
 4.435     502   22.41
 4.440     497   22.30
 4.445     495   22.24
 4.450     499   22.34
 4.455     523   22.87
 4.460     499   22.34
 4.465     491   22.15
 4.470     511   22.61
 4.475     511   22.60
 4.480     492   22.18
 4.485     501   22.37
 4.490     489   22.11
 4.495     486   22.05
 4.500     486   22.05
 4.505     501   22.37
 4.510     494   22.23
 4.515     474   21.77
 4.520     487   22.07
 4.525     508   22.53
 4.530     509   22.56
 4.535     488   22.10
 4.540     506   22.49
 4.545     496   22.28
 4.550     488   22.09
 4.555     502   22.41
 4.560     494   22.22
 4.565     489   22.12
 4.570     505   22.47
 4.575     506   22.48
 4.580     491   22.16
 4.585     502   22.41
 4.590     504   22.46
 4.595     501   22.37
 4.600     498   22.32
 4.605     482   21.95
 4.610     496   22.27
 4.615     513   22.66
 4.620     502   22.40
 4.625     494   22.23
 4.630     504   22.45
 4.635     502   22.41
 4.640     494   22.22
 4.645     477   21.84
 4.650     489   22.10
 4.655     513   22.66
 4.660     510   22.58
 4.665     500   22.36
 4.670     512   22.63
 4.675     499   22.33
 4.680     492   22.18
 4.685     493   22.20
 4.690     489   22.11
 4.695     500   22.35
 4.700     491   22.16
 4.705     494   22.23
 4.710     494   22.22
 4.715     506   22.49
 4.720     505   22.47
 4.725     494   22.22
 4.730     511   22.60
 4.735     505   22.47
 4.740     492   22.19
 4.745     508   22.54
 4.750     493   22.21
 4.755     485   22.03
 4.760     499   22.33
 4.765     502   22.40
 4.770     496   22.28
 4.775     485   22.01
 4.780     495   22.26
 4.785     495   22.24
 4.790     504   22.46
 4.795     505   22.46
 4.800     503   22.42
 4.805     504   22.45
 4.810     511   22.61
 4.815     500   22.37
 4.820     494   22.22
 4.825     504   22.46
 4.830     498   22.32
 4.835     500   22.36
 4.840     505   22.47
 4.845     509   22.57
 4.850     507   22.51
 4.855     507   22.51
 4.860     513   22.65
 4.865     503   22.44
 4.870     503   22.44
 4.875     493   22.20
 4.880     507   22.52
 4.885     512   22.64
 4.890     505   22.48
 4.895     510   22.58
 4.900     501   22.37
 4.905     505   22.47
 4.910     502   22.40
 4.915     512   22.64
 4.920     520   22.81
 4.925     504   22.45
 4.930     519   22.77
 4.935     521   22.83
 4.940     521   22.82
 4.945     529   23.01
 4.950     531   23.04
 4.955     541   23.26
 4.960     547   23.39
 4.965     561   23.68
 4.970     578   24.05
 4.975     575   23.97
 4.980     602   24.54
 4.985     645   25.41
 4.990     666   25.81
 4.995     689   26.24
 5.000     721   26.85
 5.005     761   27.58
 5.010     780   27.93
 5.015     793   28.17
 5.020     843   29.03
 5.025     897   29.95
 5.030     934   30.56
 5.035    1020   31.94
 5.040    1065   32.64
 5.045    1144   33.83
 5.050    1252   35.39
 5.055    1330   36.47
 5.060    1440   37.94
 5.065    1609   40.11
 5.070    1801   42.44
 5.075    2053   45.31
 5.080    2387   48.86
 5.085    2789   52.82
 5.090    3347   57.85
 5.095    3965   62.97
 5.100    4461   66.79
 5.105    4419   66.48
 5.110    3509   59.24
 5.115    2364   48.62
 5.120    1562   39.52
 5.125    1115   33.39
 5.130     899   29.99
 5.135     784   27.99
 5.140     731   27.04
 5.145     671   25.90
 5.150     641   25.32
 5.155     636   25.22
 5.160     607   24.64
 5.165     580   24.09
 5.170     571   23.89
 5.175     574   23.95
 5.180     572   23.92
 5.185     551   23.48
 5.190     545   23.34
 5.195     549   23.42
 5.200     530   23.02
 5.205     531   23.04
 5.210     548   23.41
 5.215     537   23.18
 5.220     531   23.03
 5.225     538   23.20
 5.230     521   22.83
 5.235     538   23.19
 5.240     542   23.28
 5.245     534   23.11
 5.250     519   22.78
 5.255     488   22.10
 5.260     517   22.73
 5.265     531   23.05
 5.270     517   22.74
 5.275     517   22.74
 5.280     519   22.78
 5.285     513   22.64
 5.290     519   22.78
 5.295     528   22.98
 5.300     514   22.67
 5.305     513   22.64
 5.310     507   22.51
 5.315     504   22.45
 5.320     502   22.41
 5.325     509   22.57
 5.330     510   22.59
 5.335     504   22.44
 5.340     510   22.58
 5.345     515   22.69
 5.350     515   22.69
 5.355     508   22.54
 5.360     521   22.83
 5.365     506   22.50
 5.370     485   22.03
 5.375     494   22.23
 5.380     509   22.56
 5.385     508   22.54
 5.390     495   22.25
 5.395     496   22.27
 5.400     500   22.36
 5.405     498   22.31
 5.410     509   22.57
 5.415     512   22.63
 5.420     505   22.46
 5.425     502   22.41
 5.430     516   22.72
 5.435     507   22.52
 5.440     501   22.38
 5.445     501   22.38
 5.450     514   22.66
 5.455     518   22.75
 5.460     509   22.57
 5.465     537   23.17
 5.470     517   22.73
 5.475     501   22.38
 5.480     496   22.26
 5.485     497   22.28
 5.490     500   22.36
 5.495     497   22.29
 5.500     492   22.19
 5.505     506   22.50
 5.510     512   22.62
 5.515     502   22.40
 5.520     498   22.32
 5.525     487   22.08
 5.530     500   22.36
 5.535     502   22.41
 5.540     512   22.62
 5.545     513   22.64
 5.550     500   22.36
 5.555     512   22.63
 5.560     509   22.57
 5.565     507   22.51
 5.570     495   22.24
 5.575     494   22.22
 5.580     516   22.71
 5.585     527   22.95
 5.590     511   22.60
 5.595     491   22.15
 5.600     492   22.19
 5.605     502   22.41
 5.610     511   22.61
 5.615     492   22.18
 5.620     510   22.58
 5.625     523   22.87
 5.630     523   22.88
 5.635     515   22.68
 5.640     518   22.75
 5.645     530   23.02
 5.650     535   23.14
 5.655     538   23.20
 5.660     540   23.24
 5.665     546   23.37
 5.670     538   23.19
 5.675     544   23.33
 5.680     561   23.69
 5.685     572   23.91
 5.690     569   23.86
 5.695     578   24.04
 5.700     595   24.40
 5.705     616   24.83
 5.710     636   25.21
 5.715     673   25.93
 5.720     699   26.44
 5.725     704   26.53
 5.730     713   26.71
 5.735     720   26.84
 5.740     715   26.74
 5.745     724   26.91
 5.750     709   26.62
 5.755     672   25.92
 5.760     657   25.63
 5.765     630   25.10
 5.770     588   24.25
 5.775     563   23.73
 5.780     548   23.40
 5.785     542   23.29
 5.790     532   23.07
 5.795     526   22.95
 5.800     521   22.82
 5.805     518   22.77
 5.810     534   23.11
 5.815     525   22.91
 5.820     529   22.99
 5.825     525   22.92
 5.830     519   22.78
 5.835     529   22.99
 5.840     524   22.89
 5.845     523   22.87
 5.850     521   22.83
 5.855     524   22.89
 5.860     515   22.69
 5.865     512   22.62
 5.870     517   22.75
 5.875     523   22.88
 5.880     522   22.84
 5.885     508   22.55
 5.890     518   22.77
 5.895     529   23.00
 5.900     508   22.54
 5.905     519   22.79
 5.910     519   22.78
 5.915     539   23.23
 5.920     536   23.16
 5.925     532   23.07
 5.930     521   22.84
 5.935     523   22.87
 5.940     538   23.19
 5.945     530   23.03
 5.950     527   22.95
 5.955     528   22.99
 5.960     539   23.22
 5.965     523   22.87
 5.970     526   22.92
 5.975     545   23.34
 5.980     551   23.47
 5.985     560   23.67
 5.990     577   24.02
 5.995     574   23.96
 6.000     584   24.17
 6.005     612   24.73
 6.010     646   25.42
 6.015     673   25.95
 6.020     685   26.16
 6.025     734   27.09
 6.030     789   28.09
 6.035     822   28.68
 6.040     872   29.53
 6.045     940   30.66
 6.050    1012   31.81
 6.055    1092   33.05
 6.060    1179   34.34
 6.065    1272   35.66
 6.070    1414   37.61
 6.075    1589   39.86
 6.080    1819   42.65
 6.085    2080   45.61
 6.090    2397   48.96
 6.095    2805   52.96
 6.100    3203   56.59
 6.105    3557   59.64
 6.110    3747   61.22
 6.115    3745   61.20
 6.120    3614   60.12
 6.125    3435   58.61
 6.130    3130   55.95
 6.135    2682   51.79
 6.140    2213   47.05
 6.145    1737   41.68
 6.150    1359   36.86
 6.155    1106   33.25
 6.160     920   30.33
 6.165     823   28.69
 6.170     793   28.16
 6.175     728   26.99
 6.180     676   26.00
 6.185     671   25.90
 6.190     647   25.43
 6.195     625   25.00
 6.200     592   24.33
 6.205     587   24.22
 6.210     579   24.07
 6.215     562   23.71
 6.220     585   24.18
 6.225     577   24.01
 6.230     559   23.64
 6.235     564   23.75
 6.240     560   23.67
 6.245     551   23.47
 6.250     540   23.24
 6.255     541   23.26
 6.260     555   23.55
 6.265     564   23.74
 6.270     547   23.39
 6.275     533   23.09
 6.280     550   23.46
 6.285     544   23.33
 6.290     562   23.70
 6.295     555   23.56
 6.300     545   23.35
 6.305     563   23.72
 6.310     560   23.66
 6.315     554   23.53
 6.320     575   23.99
 6.325     585   24.18
 6.330     579   24.06
 6.335     606   24.61
 6.340     621   24.92
 6.345     651   25.52
 6.350     665   25.80
 6.355     691   26.28
 6.360     739   27.19
 6.365     751   27.40
 6.370     738   27.17
 6.375     696   26.38
 6.380     639   25.28
 6.385     605   24.59
 6.390     567   23.81
 6.395     545   23.34
 6.400     537   23.18
 6.405     540   23.23
 6.410     544   23.33
 6.415     528   22.98
 6.420     524   22.88
 6.425     523   22.88
 6.430     525   22.92
 6.435     514   22.67
 6.440     505   22.47
 6.445     510   22.58
 6.450     525   22.92
 6.455     533   23.08
 6.460     523   22.88
 6.465     524   22.88
 6.470     525   22.92
 6.475     539   23.21
 6.480     537   23.17
 6.485     520   22.81
 6.490     531   23.05
 6.495     532   23.06
 6.500     512   22.63
 6.505     526   22.92
 6.510     526   22.94
 6.515     508   22.54
 6.520     506   22.50
 6.525     532   23.07
 6.530     542   23.28
 6.535     525   22.91
 6.540     541   23.26
 6.545     541   23.27
 6.550     542   23.27
 6.555     556   23.58
 6.560     567   23.81
 6.565     560   23.66
 6.570     542   23.29
 6.575     558   23.62
 6.580     561   23.70
 6.585     569   23.85
 6.590     584   24.16
 6.595     596   24.41
 6.600     610   24.70
 6.605     631   25.11
 6.610     667   25.82
 6.615     705   26.55
 6.620     731   27.03
 6.625     775   27.83
 6.630     841   29.00
 6.635     900   30.01
 6.640     974   31.21
 6.645    1069   32.69
 6.650    1146   33.85
 6.655    1230   35.07
 6.660    1374   37.07
 6.665    1531   39.12
 6.670    1715   41.41
 6.675    1947   44.13
 6.680    2238   47.30
 6.685    2608   51.07
 6.690    3145   56.08
 6.695    3712   60.93
 6.700    4317   65.71
 6.705    4730   68.77
 6.710    4650   68.19
 6.715    4096   64.00
 6.720    3192   56.50
 6.725    2324   48.21
 6.730    1704   41.28
 6.735    1289   35.91
 6.740    1033   32.14
 6.745     905   30.09
 6.750     810   28.46
 6.755     750   27.38
 6.760     703   26.51
 6.765     664   25.76
 6.770     659   25.67
 6.775     637   25.24
 6.780     630   25.11
 6.785     620   24.89
 6.790     598   24.45
 6.795     619   24.87
 6.800     607   24.64
 6.805     583   24.16
 6.810     579   24.07
 6.815     583   24.14
 6.820     563   23.74
 6.825     562   23.71
 6.830     579   24.06
 6.835     572   23.91
 6.840     598   24.46
 6.845     593   24.36
 6.850     597   24.43
 6.855     611   24.72
 6.860     611   24.72
 6.865     627   25.04
 6.870     639   25.28
 6.875     661   25.71
 6.880     724   26.91
 6.885     753   27.43
 6.890     782   27.97
 6.895     856   29.26
 6.900     891   29.84
 6.905     958   30.95
 6.910    1080   32.86
 6.915    1193   34.55
 6.920    1284   35.84
 6.925    1420   37.68
 6.930    1582   39.77
 6.935    1761   41.97
 6.940    1997   44.69
 6.945    2274   47.69
 6.950    2586   50.85
 6.955    2951   54.32
 6.960    3363   57.99
 6.965    3950   62.85
 6.970    4664   68.29
 6.975    5229   72.31
 6.980    5682   75.38
 6.985    5795   76.13
 6.990    5375   73.32
 6.995    4624   68.00
 7.000    3742   61.17
 7.005    2915   53.99
 7.010    2245   47.38
 7.015    1788   42.28
 7.020    1446   38.02
 7.025    1192   34.52
 7.030    1056   32.50
 7.035     954   30.89
 7.040     863   29.38
 7.045     821   28.66
 7.050     762   27.60
 7.055     731   27.03
 7.060     725   26.93
 7.065     687   26.21
 7.070     664   25.77
 7.075     664   25.76
 7.080     666   25.81
 7.085     657   25.64
 7.090     677   26.03
 7.095     698   26.43
 7.100     697   26.39
 7.105     721   26.85
 7.110     769   27.74
 7.115     787   28.05
 7.120     792   28.14
 7.125     810   28.47
 7.130     812   28.50
 7.135     779   27.91
 7.140     735   27.12
 7.145     692   26.30
 7.150     633   25.16
 7.155     612   24.73
 7.160     591   24.30
 7.165     560   23.67
 7.170     551   23.47
 7.175     551   23.47
 7.180     543   23.30
 7.185     534   23.10
 7.190     547   23.39
 7.195     533   23.09
 7.200     540   23.23
 7.205     564   23.75
 7.210     584   24.18
 7.215     597   24.44
 7.220     596   24.42
 7.225     606   24.62
 7.230     617   24.84
 7.235     641   25.32
 7.240     677   26.02
 7.245     695   26.37
 7.250     726   26.94
 7.255     776   27.86
 7.260     825   28.73
 7.265     869   29.48
 7.270     959   30.97
 7.275    1064   32.61
 7.280    1154   33.97
 7.285    1276   35.73
 7.290    1357   36.84
 7.295    1388   37.26
 7.300    1351   36.75
 7.305    1229   35.06
 7.310    1092   33.04
 7.315     963   31.03
 7.320     816   28.57
 7.325     701   26.47
 7.330     647   25.43
 7.335     598   24.45
 7.340     591   24.31
 7.345     573   23.94
 7.350     550   23.45
 7.355     551   23.47
 7.360     515   22.70
 7.365     523   22.87
 7.370     546   23.36
 7.375     504   22.44
 7.380     498   22.31
 7.385     500   22.35
 7.390     506   22.49
 7.395     513   22.65
 7.400     474   21.78
 7.405     484   22.01
 7.410     508   22.53
 7.415     487   22.07
 7.420     483   21.97
 7.425     484   22.01
 7.430     476   21.83
 7.435     494   22.23
 7.440     494   22.22
 7.445     480   21.90
 7.450     476   21.82
 7.455     502   22.41
 7.460     498   22.32
 7.465     468   21.63
 7.470     479   21.89
 7.475     500   22.35
 7.480     476   21.82
 7.485     474   21.78
 7.490     492   22.18
 7.495     477   21.85
 7.500     479   21.89
 7.505     474   21.76
 7.510     483   21.97
 7.515     476   21.83
 7.520     474   21.78
 7.525     473   21.75
 7.530     476   21.81
 7.535     488   22.08
 7.540     488   22.10
 7.545     490   22.12
 7.550     496   22.28
 7.555     506   22.49
 7.560     517   22.74
 7.565     509   22.55
 7.570     503   22.42
 7.575     516   22.71
 7.580     523   22.88
 7.585     540   23.24
 7.590     548   23.40
 7.595     566   23.80
 7.600     575   23.97
 7.605     587   24.22
 7.610     624   24.97
 7.615     676   25.99
 7.620     703   26.52
 7.625     731   27.03
 7.630     788   28.08
 7.635     836   28.91
 7.640     815   28.54
 7.645     780   27.93
 7.650     741   27.22
 7.655     660   25.68
 7.660     608   24.65
 7.665     563   23.73
 7.670     533   23.08
 7.675     515   22.68
 7.680     484   22.01
 7.685     476   21.82
 7.690     489   22.11
 7.695     470   21.69
 7.700     463   21.53
 7.705     482   21.96
 7.710     479   21.89
 7.715     467   21.60
 7.720     482   21.95
 7.725     469   21.66
 7.730     457   21.38
 7.735     460   21.45
 7.740     472   21.73
 7.745     463   21.52
 7.750     446   21.13
 7.755     462   21.48
 7.760     467   21.62
 7.765     456   21.35
 7.770     452   21.26
 7.775     459   21.42
 7.780     462   21.50
 7.785     479   21.90
 7.790     483   21.97
 7.795     458   21.41
 7.800     451   21.24
 7.805     467   21.62
 7.810     467   21.61
 7.815     466   21.59
 7.820     457   21.38
 7.825     456   21.36
 7.830     463   21.51
 7.835     459   21.43
 7.840     466   21.59
 7.845     468   21.64
 7.850     466   21.58
 7.855     462   21.49
 7.860     447   21.14
 7.865     463   21.52
 7.870     464   21.53
 7.875     452   21.26
 7.880     454   21.30
 7.885     460   21.45
 7.890     482   21.95
 7.895     463   21.53
 7.900     471   21.71
 7.905     470   21.69
 7.910     468   21.64
 7.915     465   21.56
 7.920     472   21.72
 7.925     472   21.73
 7.930     464   21.55
 7.935     475   21.80
 7.940     483   21.97
 7.945     486   22.05
 7.950     465   21.57
 7.955     464   21.53
 7.960     480   21.91
 7.965     479   21.87
 7.970     473   21.75
 7.975     483   21.97
 7.980     495   22.25
 7.985     487   22.08
 7.990     480   21.90
 7.995     489   22.10
 8.000     504   22.44
 8.005     486   22.03
 8.010     502   22.40
 8.015     511   22.60
 8.020     510   22.59
 8.025     514   22.68
 8.030     518   22.77
 8.035     538   23.20
 8.040     546   23.36
 8.045     538   23.19
 8.050     568   23.83
 8.055     589   24.27
 8.060     601   24.52
 8.065     656   25.61
 8.070     675   25.99
 8.075     733   27.07
 8.080     825   28.73
 8.085     890   29.83
 8.090     973   31.19
 8.095    1096   33.10
 8.100    1231   35.09
 8.105    1388   37.26
 8.110    1593   39.91
 8.115    1810   42.55
 8.120    2059   45.37
 8.125    2425   49.24
 8.130    2770   52.63
 8.135    3245   56.97
 8.140    3892   62.39
 8.145    4573   67.63
 8.150    5260   72.52
 8.155    5799   76.15
 8.160    6021   77.60
 8.165    5845   76.45
 8.170    5269   72.59
 8.175    4449   66.70
 8.180    3540   59.50
 8.185    2803   52.94
 8.190    2168   46.56
 8.195    1681   41.00
 8.200    1369   37.00
 8.205    1160   34.06
 8.210     982   31.33
 8.215     877   29.61
 8.220     800   28.28
 8.225     726   26.95
 8.230     680   26.08
 8.235     658   25.64
 8.240     611   24.71
 8.245     596   24.41
 8.250     569   23.86
 8.255     549   23.42
 8.260     539   23.22
 8.265     523   22.87
 8.270     506   22.49
 8.275     517   22.74
 8.280     511   22.61
 8.285     499   22.33
 8.290     486   22.04
 8.295     486   22.04
 8.300     492   22.19
 8.305     482   21.95
 8.310     476   21.82
 8.315     483   21.97
 8.320     462   21.49
 8.325     453   21.28
 8.330     463   21.52
 8.335     466   21.58
 8.340     464   21.53
 8.345     463   21.51
 8.350     473   21.74
 8.355     457   21.37
 8.360     455   21.33
 8.365     464   21.54
 8.370     462   21.50
 8.375     470   21.67
 8.380     473   21.74
 8.385     473   21.76
 8.390     492   22.18
 8.395     492   22.18
 8.400     518   22.75
 8.405     535   23.14
 8.410     544   23.32
 8.415     590   24.30
 8.420     617   24.84
 8.425     616   24.82
 8.430     631   25.11
 8.435     668   25.84
 8.440     652   25.54
 8.445     643   25.37
 8.450     630   25.09
 8.455     591   24.31
 8.460     556   23.57
 8.465     518   22.77
 8.470     491   22.15
 8.475     471   21.71
 8.480     464   21.55
 8.485     472   21.72
 8.490     469   21.66
 8.495     470   21.68
 8.500     469   21.66
 8.505     502   22.40
 8.510     500   22.37
 8.515     515   22.70
 8.520     554   23.54
 8.525     567   23.81
 8.530     570   23.88
 8.535     600   24.50
 8.540     637   25.25
 8.545     680   26.08
 8.550     714   26.73
 8.555     699   26.44
 8.560     672   25.92
 8.565     670   25.89
 8.570     641   25.31
 8.575     623   24.95
 8.580     620   24.89
 8.585     601   24.52
 8.590     574   23.96
 8.595     553   23.52
 8.600     548   23.41
 8.605     520   22.80
 8.610     487   22.06
 8.615     476   21.82
 8.620     483   21.97
 8.625     465   21.56
 8.630     480   21.90
 8.635     470   21.67
 8.640     447   21.13
 8.645     456   21.35
 8.650     453   21.29
 8.655     447   21.14
 8.660     441   20.99
 8.665     451   21.23
 8.670     443   21.05
 8.675     464   21.55
 8.680     462   21.50
 8.685     455   21.33
 8.690     457   21.37
 8.695     445   21.09
 8.700     468   21.64
 8.705     459   21.42
 8.710     469   21.65
 8.715     460   21.45
 8.720     457   21.38
 8.725     493   22.21
 8.730     491   22.16
 8.735     501   22.38
 8.740     520   22.81
 8.745     527   22.96
 8.750     561   23.69
 8.755     587   24.24
 8.760     629   25.08
 8.765     687   26.22
 8.770     717   26.79
 8.775     769   27.73
 8.780     837   28.93
 8.785     934   30.55
 8.790    1047   32.36
 8.795    1152   33.93
 8.800    1275   35.70
 8.805    1449   38.07
 8.810    1645   40.56
 8.815    1809   42.53
 8.820    1958   44.25
 8.825    2078   45.58
 8.830    2141   46.27
 8.835    2147   46.33
 8.840    2093   45.75
 8.845    1975   44.44
 8.850    1809   42.53
 8.855    1619   40.24
 8.860    1446   38.03
 8.865    1291   35.93
 8.870    1165   34.13
 8.875    1084   32.93
 8.880    1044   32.31
 8.885    1053   32.45
 8.890    1065   32.63
 8.895    1129   33.60
 8.900    1238   35.18
 8.905    1293   35.96
 8.910    1372   37.04
 8.915    1355   36.82
 8.920    1279   35.77
 8.925    1193   34.54
 8.930    1030   32.09
 8.935     870   29.50
 8.940     773   27.80
 8.945     656   25.60
 8.950     572   23.91
 8.955     540   23.24
 8.960     522   22.84
 8.965     509   22.57
 8.970     493   22.20
 8.975     472   21.73
 8.980     472   21.72
 8.985     457   21.38
 8.990     461   21.48
 8.995     452   21.25
 9.000     434   20.83
 9.005     451   21.23
 9.010     450   21.21
 9.015     423   20.56
 9.020     436   20.89
 9.025     436   20.88
 9.030     422   20.54
 9.035     437   20.91
 9.040     432   20.79
 9.045     420   20.50
 9.050     426   20.65
 9.055     426   20.64
 9.060     412   20.30
 9.065     420   20.49
 9.070     413   20.33
 9.075     426   20.64
 9.080     416   20.40
 9.085     411   20.28
 9.090     420   20.50
 9.095     418   20.44
 9.100     410   20.24
 9.105     421   20.51
 9.110     423   20.57
 9.115     408   20.19
 9.120     411   20.27
 9.125     411   20.28
 9.130     411   20.28
 9.135     415   20.37
 9.140     421   20.51
 9.145     407   20.17
 9.150     420   20.50
 9.155     412   20.29
 9.160     410   20.25
 9.165     422   20.54
 9.170     414   20.35
 9.175     415   20.37
 9.180     424   20.58
 9.185     419   20.47
 9.190     411   20.28
 9.195     412   20.31
 9.200     418   20.44
 9.205     408   20.19
 9.210     409   20.23
 9.215     414   20.35
 9.220     406   20.16
 9.225     417   20.41
 9.230     424   20.59
 9.235     417   20.41
 9.240     421   20.51
 9.245     421   20.53
 9.250     428   20.70
 9.255     429   20.72
 9.260     414   20.36
 9.265     434   20.83
 9.270     442   21.02
 9.275     424   20.59
 9.280     434   20.84
 9.285     439   20.96
 9.290     433   20.81
 9.295     433   20.82
 9.300     441   21.00
 9.305     442   21.01
 9.310     446   21.12
 9.315     449   21.18
 9.320     463   21.52
 9.325     484   22.00
 9.330     486   22.04
 9.335     493   22.21
 9.340     502   22.41
 9.345     515   22.68
 9.350     540   23.24
 9.355     583   24.14
 9.360     631   25.12
 9.365     684   26.15
 9.370     723   26.90
 9.375     798   28.24
 9.380     899   29.98
 9.385     991   31.48
 9.390    1123   33.52
 9.395    1282   35.81
 9.400    1481   38.49
 9.405    1703   41.27
 9.410    1956   44.23
 9.415    2269   47.64
 9.420    2481   49.81
 9.425    2643   51.41
 9.430    2664   51.62
 9.435    2527   50.27
 9.440    2332   48.29
 9.445    2029   45.04
 9.450    1705   41.30
 9.455    1433   37.86
 9.460    1191   34.51
 9.465    1029   32.08
 9.470     903   30.06
 9.475     829   28.79
 9.480     780   27.92
 9.485     770   27.75
 9.490     786   28.04
 9.495     818   28.60
 9.500     859   29.30
 9.505     903   30.05
 9.510    1011   31.79
 9.515    1123   33.52
 9.520    1237   35.17
 9.525    1393   37.32
 9.530    1590   39.88
 9.535    1809   42.53
 9.540    2064   45.44
 9.545    2268   47.63
 9.550    2485   49.85
 9.555    2674   51.72
 9.560    2758   52.52
 9.565    2710   52.06
 9.570    2556   50.55
 9.575    2336   48.34
 9.580    2069   45.49
 9.585    1810   42.54
 9.590    1545   39.30
 9.595    1285   35.85
 9.600    1117   33.42
 9.605     972   31.18
 9.610     836   28.91
 9.615     777   27.88
 9.620     726   26.94
 9.625     639   25.28
 9.630     610   24.71
 9.635     570   23.88
 9.640     547   23.39
 9.645     524   22.89
 9.650     532   23.06
 9.655     520   22.81
 9.660     473   21.76
 9.665     476   21.82
 9.670     464   21.53
 9.675     454   21.30
 9.680     455   21.33
 9.685     442   21.03
 9.690     430   20.75
 9.695     430   20.74
 9.700     434   20.84
 9.705     422   20.55
 9.710     430   20.73
 9.715     424   20.58
 9.720     415   20.36
 9.725     423   20.56
 9.730     420   20.50
 9.735     409   20.22
 9.740     401   20.02
 9.745     421   20.51
 9.750     428   20.70
 9.755     410   20.26
 9.760     418   20.45
 9.765     414   20.35
 9.770     408   20.20
 9.775     393   19.82
 9.780     394   19.86
 9.785     399   19.97
 9.790     384   19.60
 9.795     401   20.01
 9.800     397   19.91
 9.805     385   19.61
 9.810     409   20.22
 9.815     412   20.31
 9.820     398   19.95
 9.825     395   19.87
 9.830     396   19.90
 9.835     404   20.10
 9.840     389   19.73
 9.845     384   19.60
 9.850     402   20.04
 9.855     408   20.20
 9.860     409   20.23
 9.865     390   19.74
 9.870     389   19.73
 9.875     391   19.77
 9.880     394   19.84
 9.885     396   19.90
 9.890     391   19.77
 9.895     395   19.88
 9.900     398   19.96
 9.905     388   19.69
 9.910     390   19.75
 9.915     389   19.73
 9.920     398   19.96
 9.925     389   19.72
 9.930     391   19.78
 9.935     401   20.04
 9.940     386   19.64
 9.945     391   19.78
 9.950     389   19.72
 9.955     382   19.53
 9.960     387   19.67
 9.965     388   19.71
 9.970     397   19.91
 9.975     398   19.94
 9.980     385   19.61
 9.985     383   19.58
 9.990     413   20.32
 9.995     396   19.91
10.000     378   19.44
10.005     389   19.73
10.010     390   19.74
10.015     395   19.88
10.020     376   19.38
10.025     383   19.56
10.030     390   19.75
10.035     402   20.04
10.040     387   19.68
10.045     375   19.36
10.050     392   19.80
10.055     400   20.01
10.060     394   19.84
10.065     388   19.71
10.070     389   19.72
10.075     382   19.54
10.080     375   19.37
10.085     379   19.48
10.090     397   19.93
10.095     406   20.16
10.100     379   19.46
10.105     399   19.98
10.110     398   19.94
10.115     387   19.66
10.120     398   19.94
10.125     377   19.42
10.130     386   19.65
10.135     400   20.01
10.140     407   20.17
10.145     413   20.32
10.150     402   20.06
10.155     419   20.46
10.160     444   21.06
10.165     449   21.18
10.170     480   21.92
10.175     495   22.24
10.180     514   22.67
10.185     546   23.36
10.190     583   24.14
10.195     625   24.99
10.200     699   26.43
10.205     776   27.86
10.210     851   29.17
10.215     871   29.52
10.220     824   28.71
10.225     747   27.34
10.230     651   25.52
10.235     560   23.66
10.240     513   22.64
10.245     479   21.89
10.250     445   21.10
10.255     436   20.88
10.260     415   20.36
10.265     400   19.99
10.270     390   19.75
10.275     396   19.89
10.280     394   19.85
10.285     391   19.76
10.290     392   19.80
10.295     394   19.86
10.300     400   20.00
10.305     401   20.02
10.310     390   19.74
10.315     388   19.71
10.320     389   19.72
10.325     385   19.62
10.330     398   19.95
10.335     402   20.05
10.340     393   19.82
10.345     379   19.47
10.350     386   19.65
10.355     390   19.75
10.360     388   19.69
10.365     392   19.81
10.370     383   19.57
10.375     384   19.59
10.380     397   19.92
10.385     401   20.02
10.390     390   19.74
10.395     365   19.11
10.400     387   19.66
10.405     389   19.72
10.410     401   20.02
10.415     397   19.92
10.420     394   19.85
10.425     409   20.22
10.430     401   20.02
10.435     387   19.67
10.440     392   19.80
10.445     396   19.91
10.450     392   19.81
10.455     407   20.16
10.460     396   19.89
10.465     395   19.87
10.470     414   20.34
10.475     409   20.22
10.480     403   20.08
10.485     382   19.54
10.490     402   20.05
10.495     401   20.03
10.500     400   19.99
10.505     416   20.40
10.510     417   20.41
10.515     431   20.76
10.520     422   20.53
10.525     450   21.20
10.530     445   21.09
10.535     451   21.24
10.540     476   21.81
10.545     482   21.97
10.550     480   21.92
10.555     511   22.60
10.560     537   23.17
10.565     536   23.15
10.570     544   23.32
10.575     554   23.53
10.580     566   23.80
10.585     567   23.81
10.590     568   23.84
10.595     582   24.12
10.600     598   24.45
10.605     594   24.38
10.610     613   24.75
10.615     654   25.57
10.620     677   26.02
10.625     755   27.48
10.630     835   28.90
10.635     917   30.28
10.640    1049   32.38
10.645    1237   35.17
10.650    1437   37.90
10.655    1663   40.78
10.660    2002   44.74
10.665    2389   48.88
10.670    2767   52.60
10.675    3199   56.56
10.680    3660   60.50
10.685    4040   63.56
10.690    4358   66.02
10.695    4515   67.19
10.700    4541   67.39
10.705    4469   66.85
10.710    4390   66.25
10.715    4162   64.51
10.720    3738   61.14
10.725    3230   56.83
10.730    2690   51.86
10.735    2206   46.97
10.740    1793   42.34
10.745    1527   39.08
10.750    1298   36.02
10.755    1130   33.62
10.760     997   31.58
10.765     898   29.97
10.770     800   28.28
10.775     765   27.66
10.780     708   26.61
10.785     656   25.61
10.790     643   25.36
10.795     602   24.54
10.800     590   24.29
10.805     576   24.00
10.810     559   23.65
10.815     552   23.48
10.820     536   23.15
10.825     549   23.42
10.830     540   23.23
10.835     538   23.19
10.840     550   23.46
10.845     544   23.31
10.850     566   23.80
10.855     587   24.23
10.860     613   24.75
10.865     634   25.17
10.870     673   25.93
10.875     746   27.31
10.880     812   28.49
10.885     858   29.29
10.890     964   31.05
10.895    1089   33.01
10.900    1190   34.49
10.905    1322   36.36
10.910    1483   38.51
10.915    1642   40.52
10.920    1804   42.47
10.925    1980   44.49
10.930    2148   46.35
10.935    2251   47.44
10.940    2371   48.69
10.945    2506   50.06
10.950    2506   50.06
10.955    2509   50.09
10.960    2438   49.38
10.965    2274   47.69
10.970    2119   46.03
10.975    1858   43.11
10.980    1612   40.14
10.985    1384   37.20
10.990    1207   34.75
10.995    1050   32.40
11.000     898   29.97
11.005     775   27.83
11.010     656   25.61
11.015     643   25.35
11.020     584   24.17
11.025     539   23.22
11.030     507   22.51
11.035     489   22.12
11.040     464   21.53
11.045     440   20.99
11.050     463   21.52
11.055     465   21.57
11.060     448   21.16
11.065     426   20.64
11.070     417   20.43
11.075     418   20.45
11.080     409   20.24
11.085     412   20.29
11.090     406   20.15
11.095     400   20.00
11.100     407   20.17
11.105     411   20.27
11.110     396   19.89
11.115     399   19.98
11.120     398   19.96
11.125     380   19.48
11.130     378   19.43
11.135     389   19.72
11.140     393   19.82
11.145     394   19.85
11.150     393   19.81
11.155     386   19.64
11.160     398   19.95
11.165     387   19.66
11.170     385   19.63
11.175     390   19.74
11.180     380   19.49
11.185     383   19.57
11.190     384   19.59
11.195     364   19.07
11.200     366   19.12
11.205     390   19.75
11.210     384   19.61
11.215     381   19.52
11.220     382   19.55
11.225     387   19.67
11.230     392   19.80
11.235     377   19.41
11.240     370   19.24
11.245     375   19.37
11.250     382   19.55
11.255     386   19.64
11.260     377   19.42
11.265     378   19.45
11.270     381   19.52
11.275     370   19.24
11.280     366   19.13
11.285     366   19.12
11.290     371   19.26
11.295     389   19.72
11.300     381   19.52
11.305     367   19.16
11.310     362   19.02
11.315     379   19.47
11.320     380   19.48
11.325     363   19.04
11.330     379   19.48
11.335     380   19.49
11.340     368   19.18
11.345     379   19.47
11.350     369   19.21
11.355     373   19.31
11.360     382   19.55
11.365     379   19.47
11.370     379   19.46
11.375     371   19.27
11.380     389   19.72
11.385     385   19.62
11.390     387   19.67
11.395     392   19.80
11.400     376   19.40
11.405     380   19.48
11.410     380   19.49
11.415     382   19.55
11.420     409   20.22
11.425     409   20.23
11.430     415   20.38
11.435     427   20.66
11.440     425   20.61
11.445     439   20.95
11.450     474   21.76
11.455     506   22.49
11.460     519   22.79
11.465     516   22.71
11.470     569   23.86
11.475     583   24.15
11.480     583   24.15
11.485     631   25.13
11.490     656   25.62
11.495     684   26.15
11.500     721   26.85
11.505     747   27.33
11.510     754   27.47
11.515     780   27.93
11.520     790   28.10
11.525     795   28.19
11.530     795   28.20
11.535     755   27.48
11.540     759   27.55
11.545     726   26.95
11.550     673   25.94
11.555     643   25.36
11.560     610   24.70
11.565     572   23.92
11.570     532   23.08
11.575     516   22.73
11.580     487   22.07
11.585     447   21.14
11.590     440   20.98
11.595     432   20.79
11.600     424   20.60
11.605     413   20.33
11.610     396   19.90
11.615     405   20.12
11.620     414   20.36
11.625     427   20.65
11.630     415   20.37
11.635     406   20.14
11.640     408   20.20
11.645     398   19.95
11.650     416   20.38
11.655     424   20.58
11.660     434   20.84
11.665     425   20.61
11.670     412   20.29
11.675     419   20.46
11.680     422   20.55
11.685     421   20.53
11.690     414   20.36
11.695     417   20.42
11.700     423   20.58
11.705     431   20.77
11.710     432   20.77
11.715     430   20.74
11.720     414   20.36
11.725     412   20.29
11.730     409   20.22
11.735     400   20.00
11.740     399   19.97
11.745     395   19.87
11.750     403   20.07
11.755     402   20.04
11.760     378   19.45
11.765     375   19.38
11.770     382   19.56
11.775     379   19.46
11.780     381   19.51
11.785     375   19.36
11.790     378   19.45
11.795     386   19.64
11.800     407   20.17
11.805     389   19.72
11.810     376   19.40
11.815     391   19.78
11.820     383   19.56
11.825     371   19.27
11.830     375   19.37
11.835     382   19.55
11.840     388   19.69
11.845     387   19.66
11.850     383   19.57
11.855     385   19.61
11.860     391   19.78
11.865     395   19.87
11.870     386   19.64
11.875     391   19.78
11.880     390   19.75
11.885     400   20.01
11.890     413   20.33
11.895     403   20.07
11.900     412   20.29
11.905     408   20.20
11.910     424   20.59
11.915     425   20.62
11.920     425   20.62
11.925     430   20.74
11.930     433   20.80
11.935     464   21.54
11.940     479   21.89
11.945     466   21.58
11.950     480   21.91
11.955     524   22.90
11.960     554   23.54
11.965     579   24.07
11.970     618   24.86
11.975     696   26.39
11.980     817   28.59
11.985     912   30.20
11.990    1037   32.20
11.995    1224   34.99
12.000    1462   38.24
12.005    1736   41.66
12.010    2049   45.27
12.015    2330   48.27
12.020    2606   51.04
12.025    2765   52.59
12.030    2812   53.03
12.035    2725   52.20
12.040    2687   51.84
12.045    2635   51.33
12.050    2635   51.33
12.055    2619   51.18
12.060    2626   51.25
12.065    2699   51.95
12.070    2677   51.74
12.075    2591   50.90
12.080    2522   50.22
12.085    2390   48.89
12.090    2140   46.26
12.095    1794   42.36
12.100    1451   38.09
12.105    1185   34.42
12.110     976   31.24
12.115     828   28.78
12.120     734   27.09
12.125     660   25.70
12.130     588   24.25
12.135     559   23.65
12.140     542   23.27
12.145     504   22.45
12.150     487   22.07
12.155     463   21.52
12.160     471   21.71
12.165     461   21.48
12.170     453   21.29
12.175     444   21.06
12.180     433   20.81
12.185     420   20.50
12.190     438   20.93
12.195     443   21.05
12.200     447   21.14
12.205     449   21.18
12.210     461   21.46
12.215     456   21.36
12.220     458   21.41
12.225     472   21.72
12.230     466   21.59
12.235     481   21.93
12.240     481   21.93
12.245     452   21.25
12.250     465   21.57
12.255     460   21.44
12.260     476   21.81
12.265     478   21.86
12.270     478   21.86
12.275     475   21.79
12.280     474   21.77
12.285     489   22.11
12.290     495   22.24
12.295     517   22.73
12.300     531   23.04
12.305     560   23.67
12.310     573   23.94
12.315     576   24.01
12.320     590   24.30
12.325     613   24.75
12.330     623   24.96
12.335     608   24.66
12.340     612   24.73
12.345     637   25.24
12.350     610   24.70
12.355     570   23.87
12.360     549   23.44
12.365     524   22.88
12.370     497   22.29
12.375     487   22.07
12.380     492   22.19
12.385     472   21.72
12.390     472   21.73
12.395     480   21.92
12.400     491   22.15
12.405     516   22.71
12.410     534   23.11
12.415     560   23.66
12.420     616   24.81
12.425     625   24.99
12.430     668   25.85
12.435     740   27.20
12.440     759   27.55
12.445     793   28.16
12.450     837   28.93
12.455     857   29.28
12.460     847   29.11
12.465     843   29.04
12.470     829   28.79
12.475     823   28.69
12.480     762   27.60
12.485     707   26.59
12.490     676   26.00
12.495     623   24.96
12.500     580   24.07
12.505     552   23.48
12.510     510   22.58
12.515     503   22.43
12.520     495   22.26
12.525     463   21.52
12.530     471   21.71
12.535     454   21.31
12.540     437   20.89
12.545     436   20.89
12.550     437   20.91
12.555     432   20.79
12.560     451   21.24
12.565     440   20.98
12.570     448   21.16
12.575     465   21.57
12.580     442   21.02
12.585     451   21.24
12.590     470   21.69
12.595     484   21.99
12.600     497   22.30
12.605     523   22.88
12.610     568   23.83
12.615     614   24.77
12.620     667   25.82
12.625     738   27.16
12.630     811   28.48
12.635     905   30.08
12.640    1014   31.85
12.645    1105   33.25
12.650    1232   35.10
12.655    1296   36.01
12.660    1340   36.61
12.665    1335   36.54
12.670    1329   36.46
12.675    1297   36.01
12.680    1210   34.79
12.685    1118   33.44
12.690    1029   32.07
12.695     921   30.35
12.700     827   28.75
12.705     734   27.09
12.710     642   25.34
12.715     579   24.06
12.720     551   23.47
12.725     509   22.56
12.730     483   21.98
12.735     518   22.77
12.740     495   22.24
12.745     468   21.63
12.750     474   21.77
12.755     469   21.67
12.760     451   21.24
12.765     438   20.93
12.770     440   20.98
12.775     434   20.82
12.780     418   20.45
12.785     404   20.10
12.790     402   20.04
12.795     417   20.42
12.800     395   19.88
12.805     384   19.59
12.810     388   19.70
12.815     396   19.91
12.820     387   19.66
12.825     390   19.75
12.830     397   19.92
12.835     384   19.60
12.840     385   19.62
12.845     387   19.66
12.850     386   19.65
12.855     402   20.04
12.860     408   20.19
12.865     394   19.86
12.870     399   19.98
12.875     397   19.92
12.880     406   20.14
12.885     421   20.53
12.890     420   20.50
12.895     426   20.65
12.900     443   21.06
12.905     449   21.18
12.910     478   21.86
12.915     502   22.40
12.920     519   22.77
12.925     518   22.77
12.930     507   22.52
12.935     494   22.22
12.940     495   22.26
12.945     499   22.33
12.950     487   22.07
12.955     474   21.78
12.960     472   21.73
12.965     463   21.52
12.970     458   21.40
12.975     466   21.58
12.980     463   21.52
12.985     476   21.82
12.990     491   22.16
12.995     488   22.09
13.000     474   21.77
13.005     480   21.90
13.010     469   21.66
13.015     459   21.43
13.020     460   21.45
13.025     466   21.60
13.030     451   21.23
13.035     473   21.76
13.040     473   21.75
13.045     476   21.82
13.050     483   21.99
13.055     508   22.54
13.060     534   23.10
13.065     547   23.40
13.070     571   23.90
13.075     583   24.14
13.080     580   24.08
13.085     582   24.13
13.090     616   24.81
13.095     599   24.47
13.100     586   24.20
13.105     600   24.50
13.110     634   25.18
13.115     630   25.10
13.120     628   25.05
13.125     643   25.35
13.130     639   25.27
13.135     653   25.55
13.140     661   25.72
13.145     666   25.81
13.150     675   25.98
13.155     691   26.28
13.160     702   26.50
13.165     708   26.61
13.170     717   26.78
13.175     748   27.34
13.180     766   27.67
13.185     800   28.29
13.190     860   29.33
13.195     947   30.78
13.200    1086   32.95
13.205    1236   35.15
13.210    1474   38.39
13.215    1733   41.63
13.220    2000   44.72
13.225    2355   48.53
13.230    2759   52.53
13.235    3049   55.22
13.240    3271   57.19
13.245    3336   57.76
13.250    3263   57.13
13.255    3059   55.31
13.260    2788   52.80
13.265    2473   49.73
13.270    2167   46.55
13.275    1875   43.30
13.280    1645   40.55
13.285    1484   38.52
13.290    1347   36.70
13.295    1270   35.64
13.300    1187   34.45
13.305    1139   33.75
13.310    1082   32.89
13.315    1043   32.30
13.320    1026   32.03
13.325     993   31.52
13.330     950   30.82
13.335     948   30.79
13.340     907   30.12
13.345     906   30.10
13.350     879   29.65
13.355     854   29.23
13.360     822   28.66
13.365     802   28.32
13.370     782   27.96
13.375     761   27.59
13.380     735   27.10
13.385     719   26.81
13.390     727   26.97
13.395     737   27.16
13.400     764   27.64
13.405     797   28.23
13.410     883   29.71
13.415     960   30.98
13.420    1025   32.02
13.425    1081   32.88
13.430    1159   34.04
13.435    1141   33.78
13.440    1159   34.05
13.445    1102   33.19
13.450    1041   32.26
13.455     955   30.90
13.460     871   29.51
13.465     785   28.01
13.470     697   26.41
13.475     648   25.46
13.480     592   24.33
13.485     565   23.77
13.490     532   23.07
13.495     503   22.43
13.500     512   22.63
13.505     487   22.06
13.510     481   21.93
13.515     473   21.74
13.520     471   21.69
13.525     464   21.54
13.530     456   21.35
13.535     469   21.67
13.540     463   21.52
13.545     469   21.66
13.550     477   21.83
13.555     476   21.82
13.560     487   22.07
13.565     518   22.76
13.570     535   23.14
13.575     549   23.43
13.580     591   24.31
13.585     608   24.65
13.590     661   25.71
13.595     710   26.65
13.600     750   27.38
13.605     826   28.73
13.610     872   29.53
13.615     932   30.52
13.620     978   31.27
13.625    1009   31.76
13.630    1043   32.30
13.635    1099   33.15
13.640    1108   33.29
13.645    1132   33.65
13.650    1143   33.80
13.655    1109   33.31
13.660    1080   32.87
13.665    1019   31.93
13.670     937   30.61
13.675     885   29.75
13.680     862   29.35
13.685     831   28.83
13.690     782   27.96
13.695     774   27.82
13.700     753   27.44
13.705     768   27.71
13.710     791   28.12
13.715     848   29.12
13.720     902   30.04
13.725     969   31.13
13.730    1043   32.30
13.735    1066   32.65
13.740    1090   33.01
13.745    1088   32.98
13.750    1086   32.95
13.755    1008   31.75
13.760     919   30.31
13.765     865   29.40
13.770     776   27.86
13.775     729   27.00
13.780     679   26.06
13.785     631   25.11
13.790     607   24.65
13.795     588   24.26
13.800     559   23.64
13.805     532   23.07
13.810     514   22.67
13.815     531   23.05
13.820     524   22.88
13.825     504   22.45
13.830     497   22.29
13.835     513   22.65
13.840     504   22.45
13.845     483   21.98
13.850     497   22.29
13.855     499   22.34
13.860     487   22.06
13.865     504   22.46
13.870     515   22.70
13.875     548   23.40
13.880     545   23.35
13.885     582   24.12
13.890     614   24.77
13.895     661   25.72
13.900     709   26.62
13.905     760   27.57
13.910     827   28.76
13.915     865   29.41
13.920     867   29.44
13.925     880   29.67
13.930     841   29.00
13.935     802   28.33
13.940     780   27.92
13.945     732   27.05
13.950     678   26.03
13.955     669   25.87
13.960     652   25.54
13.965     640   25.30
13.970     627   25.04
13.975     653   25.55
13.980     675   25.98
13.985     681   26.09
13.990     677   26.03
13.995     687   26.21
14.000     690   26.27
14.005     674   25.96
14.010     669   25.86
14.015     659   25.66
14.020     630   25.11
14.025     569   23.85
14.030     580   24.09
14.035     561   23.68
14.040     552   23.50
14.045     533   23.08
14.050     542   23.28
14.055     525   22.91
14.060     516   22.71
14.065     527   22.95
14.070     554   23.53
14.075     561   23.69
14.080     557   23.60
14.085     586   24.21
14.090     615   24.80
14.095     635   25.20
14.100     679   26.05
14.105     752   27.42
14.110     815   28.55
14.115     859   29.31
14.120     942   30.70
14.125    1086   32.95
14.130    1205   34.71
14.135    1307   36.15
14.140    1415   37.62
14.145    1507   38.82
14.150    1641   40.50
14.155    1678   40.97
14.160    1676   40.94
14.165    1657   40.71
14.170    1635   40.44
14.175    1586   39.82
14.180    1488   38.58
14.185    1444   38.00
14.190    1385   37.22
14.195    1297   36.02
14.200    1270   35.63
14.205    1252   35.38
14.210    1291   35.93
14.215    1306   36.14
14.220    1349   36.73
14.225    1436   37.89
14.230    1493   38.64
14.235    1597   39.96
14.240    1705   41.29
14.245    1843   42.93
14.250    1890   43.47
14.255    1964   44.32
14.260    2040   45.17
14.265    2086   45.67
14.270    2081   45.62
14.275    2076   45.56
14.280    2000   44.72
14.285    1971   44.39
14.290    1867   43.21
14.295    1861   43.14
14.300    1772   42.09
14.305    1691   41.12
14.310    1608   40.10
14.315    1469   38.33
14.320    1293   35.96
14.325    1116   33.41
14.330     982   31.33
14.335     848   29.11
14.340     765   27.66
14.345     708   26.60
14.350     659   25.66
14.355     615   24.79
14.360     592   24.32
14.365     574   23.96
14.370     565   23.77
14.375     567   23.80
14.380     547   23.39
14.385     535   23.12
14.390     526   22.94
14.395     544   23.33
14.400     548   23.40
14.405     551   23.47
14.410     556   23.57
14.415     579   24.06
14.420     597   24.44
14.425     623   24.96
14.430     669   25.86
14.435     715   26.74
14.440     760   27.56
14.445     843   29.04
14.450     922   30.37
14.455    1001   31.63
14.460    1092   33.04
14.465    1149   33.90
14.470    1149   33.89
14.475    1225   35.01
14.480    1243   35.25
14.485    1220   34.92
14.490    1268   35.61
14.495    1274   35.69
14.500    1249   35.34
14.505    1247   35.31
14.510    1223   34.97
14.515    1194   34.56
14.520    1173   34.24
14.525    1142   33.79
14.530    1121   33.47
14.535    1096   33.11
14.540    1064   32.62
14.545    1070   32.72
14.550    1091   33.04
14.555    1068   32.68
14.560    1074   32.78
14.565    1118   33.44
14.570    1113   33.37
14.575    1162   34.09
14.580    1159   34.04
14.585    1218   34.90
14.590    1268   35.61
14.595    1318   36.31
14.600    1334   36.52
14.605    1396   37.36
14.610    1371   37.02
14.615    1361   36.89
14.620    1356   36.82
14.625    1318   36.30
14.630    1301   36.07
14.635    1263   35.54
14.640    1203   34.68
14.645    1137   33.73
14.650    1054   32.46
14.655     974   31.21
14.660     900   30.00
14.665     835   28.90
14.670     757   27.52
14.675     694   26.35
14.680     656   25.62
14.685     624   24.97
14.690     584   24.17
14.695     562   23.70
14.700     544   23.32
14.705     522   22.85
14.710     501   22.38
14.715     504   22.46
14.720     470   21.67
14.725     477   21.84
14.730     473   21.75
14.735     466   21.58
14.740     460   21.44
14.745     449   21.20
14.750     460   21.45
14.755     448   21.16
14.760     445   21.11
14.765     457   21.38
14.770     431   20.75
14.775     430   20.74
14.780     445   21.09
14.785     452   21.26
14.790     439   20.94
14.795     439   20.95
14.800     445   21.09
14.805     435   20.86
14.810     452   21.27
14.815     444   21.07
14.820     430   20.73
14.825     442   21.02
14.830     436   20.88
14.835     439   20.96
14.840     438   20.92
14.845     440   20.97
14.850     438   20.92
14.855     435   20.85
14.860     426   20.65
14.865     414   20.35
14.870     431   20.75
14.875     438   20.94
14.880     432   20.79
14.885     427   20.66
14.890     426   20.64
14.895     432   20.80
14.900     443   21.05
14.905     435   20.86
14.910     441   21.00
14.915     445   21.10
14.920     429   20.72
14.925     431   20.76
14.930     453   21.29
14.935     443   21.05
14.940     452   21.26
14.945     464   21.53
14.950     478   21.86
14.955     461   21.46
14.960     468   21.62
14.965     489   22.12
14.970     473   21.76
14.975     472   21.74
14.980     506   22.49
14.985     490   22.14
14.990     524   22.89
14.995     524   22.89
15.000     540   23.24
15.005     553   23.52
15.010     621   24.92
15.015     671   25.90
15.020     707   26.58
15.025     773   27.81
15.030     854   29.22
15.035     939   30.64
15.040    1041   32.27
15.045    1116   33.40
15.050    1217   34.89
15.055    1300   36.05
15.060    1348   36.71
15.065    1399   37.40
15.070    1405   37.48
15.075    1412   37.58
15.080    1377   37.11
15.085    1272   35.66
15.090    1197   34.60
15.095    1086   32.95
15.100     994   31.52
15.105     924   30.40
15.110     800   28.29
15.115     727   26.96
15.120     671   25.91
15.125     613   24.76
15.130     574   23.96
15.135     559   23.64
15.140     516   22.72
15.145     507   22.53
15.150     519   22.78
15.155     497   22.29
15.160     486   22.04
15.165     475   21.79
15.170     477   21.84
15.175     465   21.56
15.180     461   21.46
15.185     478   21.86
15.190     477   21.84
15.195     483   21.97
15.200     476   21.82
15.205     478   21.87
15.210     479   21.89
15.215     490   22.13
15.220     499   22.33
15.225     504   22.45
15.230     520   22.79
15.235     536   23.16
15.240     553   23.51
15.245     581   24.10
15.250     626   25.03
15.255     650   25.49
15.260     713   26.70
15.265     790   28.11
15.270     871   29.51
15.275     957   30.94
15.280    1086   32.96
15.285    1209   34.78
15.290    1332   36.50
15.295    1430   37.81
15.300    1482   38.49
15.305    1538   39.22
15.310    1531   39.13
15.315    1520   38.99
15.320    1532   39.14
15.325    1462   38.24
15.330    1384   37.20
15.335    1275   35.70
15.340    1171   34.22
15.345    1070   32.70
15.350     980   31.31
15.355     920   30.33
15.360     873   29.55
15.365     825   28.72
15.370     787   28.05
15.375     760   27.57
15.380     735   27.11
15.385     700   26.45
15.390     669   25.86
15.395     637   25.23
15.400     638   25.25
15.405     619   24.88
15.410     587   24.23
15.415     578   24.05
15.420     585   24.19
15.425     552   23.50
15.430     544   23.32
15.435     538   23.20
15.440     542   23.28
15.445     517   22.74
15.450     500   22.35
15.455     522   22.84
15.460     526   22.93
15.465     504   22.46
15.470     522   22.84
15.475     528   22.97
15.480     531   23.04
15.485     570   23.87
15.490     563   23.74
15.495     582   24.12
15.500     595   24.39
15.505     624   24.98
15.510     654   25.57
15.515     695   26.37
15.520     719   26.81
15.525     755   27.48
15.530     837   28.93
15.535     857   29.28
15.540     885   29.76
15.545     954   30.88
15.550    1011   31.80
15.555    1013   31.84
15.560    1048   32.37
15.565    1079   32.85
15.570    1070   32.71
15.575    1063   32.60
15.580    1062   32.59
15.585    1023   31.99
15.590     989   31.45
15.595     965   31.07
15.600     975   31.23
15.605     986   31.40
15.610     951   30.84
15.615     948   30.78
15.620     958   30.95
15.625     961   31.00
15.630     980   31.31
15.635    1002   31.66
15.640     996   31.55
15.645    1015   31.87
15.650    1022   31.97
15.655    1028   32.06
15.660    1027   32.05
15.665    1036   32.19
15.670    1019   31.91
15.675    1015   31.86
15.680    1006   31.72
15.685     987   31.42
15.690    1002   31.66
15.695    1001   31.64
15.700     991   31.48
15.705     984   31.37
15.710     959   30.97
15.715     944   30.72
15.720     949   30.81
15.725     933   30.54
15.730     907   30.12
15.735     917   30.28
15.740     887   29.78
15.745     892   29.86
15.750     901   30.02
15.755     876   29.59
15.760     870   29.50
15.765     845   29.07
15.770     851   29.17
15.775     828   28.77
15.780     808   28.43
15.785     795   28.19
15.790     775   27.85
15.795     743   27.26
15.800     730   27.01
15.805     713   26.70
15.810     684   26.15
15.815     666   25.81
15.820     688   26.24
15.825     670   25.88
15.830     669   25.86
15.835     672   25.91
15.840     682   26.12
15.845     714   26.71
15.850     730   27.03
15.855     732   27.05
15.860     755   27.47
15.865     747   27.32
15.870     774   27.83
15.875     779   27.91
15.880     765   27.66
15.885     788   28.08
15.890     760   27.57
15.895     733   27.08
15.900     764   27.65
15.905     759   27.54
15.910     724   26.90
15.915     724   26.90
15.920     707   26.60
15.925     667   25.83
15.930     687   26.21
15.935     697   26.40
15.940     688   26.23
15.945     693   26.33
15.950     705   26.55
15.955     720   26.83
15.960     704   26.54
15.965     719   26.81
15.970     740   27.20
15.975     739   27.18
15.980     724   26.91
15.985     743   27.25
15.990     732   27.06
15.995     703   26.52
16.000     707   26.59
16.005     676   26.00
16.010     659   25.68
16.015     630   25.10
16.020     603   24.56
16.025     569   23.86
16.030     554   23.53
16.035     543   23.30
16.040     511   22.61
16.045     511   22.62
16.050     506   22.49
16.055     482   21.95
16.060     468   21.62
16.065     458   21.40
16.070     446   21.12
16.075     457   21.39
16.080     455   21.34
16.085     450   21.21
16.090     460   21.46
16.095     443   21.05
16.100     435   20.86
16.105     435   20.85
16.110     429   20.72
16.115     417   20.42
16.120     437   20.90
16.125     444   21.07
16.130     413   20.33
16.135     418   20.45
16.140     433   20.81
16.145     430   20.73
16.150     426   20.65
16.155     417   20.42
16.160     420   20.50
16.165     421   20.52
16.170     413   20.32
16.175     423   20.57
16.180     416   20.39
16.185     409   20.22
16.190     437   20.91
16.195     416   20.40
16.200     404   20.09
16.205     413   20.33
16.210     421   20.52
16.215     419   20.47
16.220     422   20.55
16.225     420   20.49
16.230     417   20.41
16.235     439   20.96
16.240     449   21.18
16.245     423   20.56
16.250     434   20.82
16.255     443   21.05
16.260     451   21.24
16.265     449   21.18
16.270     454   21.32
16.275     477   21.84
16.280     466   21.58
16.285     478   21.87
16.290     488   22.08
16.295     496   22.28
16.300     509   22.57
16.305     512   22.63
16.310     516   22.71
16.315     533   23.08
16.320     570   23.87
16.325     600   24.49
16.330     603   24.55
16.335     651   25.51
16.340     680   26.07
16.345     687   26.22
16.350     734   27.08
16.355     751   27.41
16.360     765   27.65
16.365     758   27.52
16.370     777   27.88
16.375     753   27.43
16.380     744   27.28
16.385     721   26.84
16.390     689   26.25
16.395     679   26.06
16.400     665   25.80
16.405     610   24.69
16.410     573   23.93
16.415     556   23.57
16.420     536   23.15
16.425     523   22.87
16.430     480   21.90
16.435     464   21.54
16.440     460   21.44
16.445     439   20.95
16.450     433   20.80
16.455     430   20.73
16.460     418   20.44
16.465     418   20.45
16.470     423   20.57
16.475     410   20.25
16.480     411   20.28
16.485     420   20.50
16.490     414   20.36
16.495     400   20.01
16.500     407   20.18
16.505     416   20.40
16.510     401   20.03
16.515     397   19.93
16.520     400   20.00
16.525     409   20.22
16.530     415   20.37
16.535     402   20.04
16.540     396   19.90
16.545     408   20.21
16.550     403   20.08
16.555     400   20.01
16.560     404   20.10
16.565     403   20.07
16.570     411   20.28
16.575     415   20.36
16.580     409   20.22
16.585     418   20.45
16.590     428   20.68
16.595     447   21.15
16.600     466   21.59
16.605     456   21.35
16.610     470   21.69
16.615     486   22.04
16.620     494   22.22
16.625     517   22.74
16.630     507   22.52
16.635     502   22.41
16.640     485   22.02
16.645     485   22.03
16.650     472   21.73
16.655     449   21.20
16.660     445   21.10
16.665     451   21.24
16.670     437   20.90
16.675     423   20.56
16.680     437   20.90
16.685     435   20.86
16.690     423   20.57
16.695     432   20.78
16.700     414   20.36
16.705     417   20.41
16.710     415   20.36
16.715     412   20.29
16.720     417   20.42
16.725     409   20.22
16.730     413   20.32
16.735     432   20.79
16.740     426   20.65
16.745     412   20.29
16.750     422   20.55
16.755     414   20.35
16.760     399   19.98
16.765     419   20.48
16.770     433   20.82
16.775     418   20.46
16.780     442   21.03
16.785     465   21.57
16.790     464   21.55
16.795     481   21.93
16.800     487   22.06
16.805     503   22.42
16.810     533   23.09
16.815     533   23.08
16.820     541   23.25
16.825     542   23.27
16.830     553   23.52
16.835     555   23.55
16.840     541   23.25
16.845     527   22.96
16.850     535   23.13
16.855     542   23.28
16.860     520   22.81
16.865     518   22.75
16.870     508   22.54
16.875     507   22.51
16.880     485   22.01
16.885     482   21.96
16.890     478   21.85
16.895     489   22.12
16.900     501   22.38
16.905     500   22.36
16.910     485   22.02
16.915     494   22.22
16.920     497   22.29
16.925     485   22.01
16.930     522   22.85
16.935     509   22.57
16.940     519   22.78
16.945     535   23.14
16.950     538   23.19
16.955     532   23.06
16.960     538   23.20
16.965     545   23.34
16.970     554   23.55
16.975     555   23.55
16.980     560   23.67
16.985     542   23.29
16.990     538   23.19
16.995     540   23.23
17.000     535   23.13
17.005     541   23.25
17.010     534   23.10
17.015     543   23.31
17.020     543   23.31
17.025     535   23.14
17.030     519   22.78
17.035     519   22.79
17.040     528   22.99
17.045     497   22.30
17.050     502   22.41
17.055     507   22.52
17.060     511   22.61
17.065     500   22.36
17.070     475   21.79
17.075     486   22.04
17.080     498   22.31
17.085     500   22.36
17.090     500   22.36
17.095     524   22.90
17.100     536   23.15
17.105     555   23.57
17.110     564   23.75
17.115     570   23.88
17.120     584   24.16
17.125     575   23.97
17.130     577   24.01
17.135     575   23.99
17.140     565   23.77
17.145     558   23.61
17.150     556   23.59
17.155     555   23.56
17.160     549   23.44
17.165     504   22.46
17.170     501   22.38
17.175     493   22.19
17.180     498   22.31
17.185     508   22.54
17.190     495   22.25
17.195     495   22.24
17.200     483   21.97
17.205     500   22.35
17.210     510   22.59
17.215     516   22.72
17.220     516   22.73
17.225     522   22.86
17.230     541   23.25
17.235     568   23.83
17.240     559   23.64
17.245     556   23.58
17.250     573   23.95
17.255     583   24.14
17.260     580   24.08
17.265     562   23.71
17.270     584   24.16
17.275     604   24.57
17.280     602   24.54
17.285     615   24.79
17.290     600   24.50
17.295     612   24.73
17.300     602   24.53
17.305     619   24.88
17.310     649   25.48
17.315     649   25.48
17.320     645   25.39
17.325     644   25.37
17.330     660   25.69
17.335     674   25.96
17.340     683   26.14
17.345     670   25.89
17.350     647   25.44
17.355     659   25.67
17.360     639   25.27
17.365     639   25.28
17.370     623   24.96
17.375     609   24.69
17.380     570   23.88
17.385     554   23.54
17.390     565   23.78
17.395     538   23.19
17.400     529   23.01
17.405     529   23.00
17.410     500   22.36
17.415     493   22.21
17.420     498   22.31
17.425     478   21.86
17.430     487   22.06
17.435     478   21.87
17.440     484   22.00
17.445     472   21.72
17.450     475   21.81
17.455     465   21.56
17.460     474   21.77
17.465     485   22.03
17.470     475   21.80
17.475     482   21.96
17.480     487   22.07
17.485     493   22.20
17.490     520   22.81
17.495     531   23.05
17.500     543   23.31
17.505     562   23.71
17.510     581   24.11
17.515     587   24.23
17.520     639   25.27
17.525     669   25.87
17.530     704   26.54
17.535     769   27.74
17.540     816   28.56
17.545     865   29.42
17.550     892   29.86
17.555     914   30.24
17.560     925   30.41
17.565     889   29.81
17.570     882   29.69
17.575     887   29.79
17.580     845   29.07
17.585     818   28.59
17.590     773   27.80
17.595     741   27.22
17.600     706   26.58
17.605     672   25.92
17.610     643   25.35
17.615     597   24.43
17.620     579   24.06
17.625     594   24.38
17.630     549   23.43
17.635     532   23.06
17.640     525   22.91
17.645     509   22.56
17.650     531   23.04
17.655     520   22.80
17.660     529   23.00
17.665     548   23.40
17.670     551   23.48
17.675     557   23.60
17.680     553   23.51
17.685     587   24.23
17.690     628   25.05
17.695     623   24.96
17.700     634   25.18
17.705     673   25.94
17.710     668   25.85
17.715     665   25.79
17.720     682   26.11
17.725     675   25.99
17.730     721   26.85
17.735     698   26.41
17.740     691   26.28
17.745     684   26.15
17.750     676   26.00
17.755     682   26.12
17.760     665   25.78
17.765     645   25.40
17.770     630   25.10
17.775     619   24.87
17.780     595   24.39
17.785     575   23.97
17.790     554   23.53
17.795     564   23.74
17.800     556   23.59
17.805     554   23.53
17.810     550   23.44
17.815     548   23.40
17.820     548   23.40
17.825     523   22.88
17.830     558   23.63
17.835     556   23.57
17.840     551   23.47
17.845     573   23.94
17.850     596   24.42
17.855     590   24.28
17.860     598   24.45
17.865     599   24.47
17.870     634   25.19
17.875     625   25.00
17.880     630   25.11
17.885     596   24.41
17.890     597   24.43
17.895     584   24.17
17.900     581   24.11
17.905     587   24.23
17.910     560   23.67
17.915     561   23.69
17.920     541   23.25
17.925     537   23.18
17.930     517   22.73
17.935     500   22.37
17.940     498   22.32
17.945     470   21.68
17.950     467   21.61
17.955     467   21.60
17.960     473   21.74
17.965     446   21.12
17.970     435   20.85
17.975     424   20.59
17.980     411   20.28
17.985     411   20.27
17.990     406   20.15
17.995     415   20.37
18.000     417   20.43
18.005     406   20.14
18.010     419   20.48
18.015     398   19.96
18.020     396   19.89
18.025     401   20.02
18.030     414   20.35
18.035     422   20.54
18.040     426   20.63
18.045     427   20.65
18.050     434   20.83
18.055     432   20.79
18.060     439   20.94
18.065     439   20.95
18.070     446   21.12
18.075     438   20.92
18.080     435   20.86
18.085     439   20.96
18.090     437   20.91
18.095     424   20.60
18.100     422   20.54
18.105     416   20.40
18.110     436   20.87
18.115     423   20.57
18.120     421   20.53
18.125     434   20.84
18.130     402   20.04
18.135     404   20.11
18.140     419   20.47
18.145     400   20.01
18.150     404   20.10
18.155     388   19.71
18.160     373   19.32
18.165     406   20.16
18.170     400   20.01
18.175     403   20.07
18.180     413   20.32
18.185     423   20.58
18.190     424   20.59
18.195     438   20.93
18.200     441   20.99
18.205     448   21.17
18.210     484   22.00
18.215     505   22.48
18.220     496   22.28
18.225     518   22.75
18.230     538   23.20
18.235     530   23.02
18.240     527   22.95
18.245     553   23.53
18.250     567   23.82
18.255     578   24.04
18.260     593   24.35
18.265     597   24.43
18.270     581   24.10
18.275     595   24.38
18.280     595   24.39
18.285     603   24.55
18.290     644   25.39
18.295     612   24.74
18.300     633   25.17
18.305     626   25.03
18.310     624   24.97
18.315     636   25.21
18.320     616   24.82
18.325     583   24.16
18.330     571   23.90
18.335     559   23.64
18.340     536   23.14
18.345     533   23.09
18.350     501   22.38
18.355     486   22.05
18.360     469   21.66
18.365     453   21.28
18.370     451   21.23
18.375     423   20.57
18.380     414   20.34
18.385     404   20.10
18.390     402   20.04
18.395     390   19.74
18.400     381   19.51
18.405     380   19.50
18.410     383   19.56
18.415     379   19.47
18.420     389   19.71
18.425     373   19.31
18.430     381   19.53
18.435     380   19.49
18.440     362   19.04
18.445     376   19.39
18.450     387   19.68
18.455     358   18.92
18.460     367   19.17
18.465     371   19.26
18.470     376   19.40
18.475     370   19.24
18.480     382   19.54
18.485     378   19.43
18.490     382   19.55
18.495     385   19.62
18.500     389   19.73
18.505     377   19.43
18.510     382   19.53
18.515     400   19.99
18.520     383   19.58
18.525     389   19.72
18.530     395   19.86
18.535     386   19.64
18.540     386   19.65
18.545     389   19.72
18.550     384   19.59
18.555     404   20.10
18.560     386   19.64
18.565     376   19.40
18.570     391   19.78
18.575     393   19.82
18.580     373   19.31
18.585     377   19.42
18.590     376   19.38
18.595     381   19.51
18.600     373   19.31
18.605     375   19.37
18.610     390   19.74
18.615     365   19.10
18.620     362   19.02
18.625     373   19.31
18.630     374   19.33
18.635     354   18.80
18.640     360   18.98
18.645     370   19.24
18.650     370   19.23
18.655     367   19.15
18.660     371   19.27
18.665     362   19.04
18.670     354   18.82
18.675     350   18.72
18.680     360   18.99
18.685     371   19.27
18.690     356   18.88
18.695     377   19.41
18.700     375   19.38
18.705     366   19.14
18.710     382   19.55
18.715     375   19.36
18.720     376   19.38
18.725     375   19.36
18.730     367   19.14
18.735     385   19.62
18.740     375   19.36
18.745     362   19.04
18.750     368   19.19
18.755     375   19.36
18.760     359   18.96
18.765     379   19.48
18.770     360   18.96
18.775     363   19.04
18.780     370   19.23
18.785     359   18.94
18.790     362   19.02
18.795     353   18.78
18.800     329   18.14
18.805     328   18.12
18.810     340   18.45
18.815     340   18.43
18.820     344   18.56
18.825     331   18.20
18.830     335   18.30
18.835     340   18.44
18.840     327   18.07
18.845     342   18.50
18.850     349   18.69
18.855     352   18.75
18.860     361   18.99
18.865     338   18.39
18.870     345   18.58
18.875     367   19.15
18.880     360   18.97
18.885     351   18.75
18.890     352   18.75
18.895     357   18.90
18.900     371   19.27
18.905     354   18.81
18.910     362   19.01
18.915     366   19.14
18.920     380   19.49
18.925     362   19.03
18.930     379   19.46
18.935     379   19.47
18.940     369   19.21
18.945     390   19.74
18.950     395   19.87
18.955     389   19.72
18.960     403   20.08
18.965     424   20.60
18.970     423   20.57
18.975     426   20.64
18.980     430   20.73
18.985     439   20.94
18.990     443   21.04
18.995     446   21.11
19.000     449   21.19
19.005     447   21.14
19.010     429   20.72
19.015     450   21.21
19.020     435   20.86
19.025     428   20.69
19.030     435   20.86
19.035     435   20.86
19.040     401   20.02
19.045     403   20.07
19.050     382   19.54
19.055     361   19.01
19.060     383   19.57
19.065     367   19.16
19.070     356   18.86
19.075     356   18.86
19.080     355   18.84
19.085     357   18.89
19.090     353   18.80
19.095     341   18.46
19.100     355   18.83
19.105     353   18.78
19.110     349   18.68
19.115     350   18.70
19.120     372   19.28
19.125     384   19.60
19.130     369   19.21
19.135     359   18.93
19.140     384   19.59
19.145     392   19.81
19.150     389   19.73
19.155     389   19.73
19.160     420   20.49
19.165     418   20.44
19.170     445   21.09
19.175     443   21.05
19.180     458   21.40
19.185     475   21.79
19.190     488   22.08
19.195     512   22.63
19.200     518   22.77
19.205     525   22.90
19.210     552   23.49
19.215     544   23.33
19.220     558   23.61
19.225     568   23.83
19.230     609   24.68
19.235     589   24.27
19.240     613   24.76
19.245     610   24.69
19.250     610   24.69
19.255     605   24.59
19.260     615   24.80
19.265     604   24.58
19.270     589   24.28
19.275     584   24.16
19.280     604   24.57
19.285     572   23.92
19.290     581   24.10
19.295     570   23.88
19.300     553   23.52
19.305     572   23.93
19.310     561   23.69
19.315     519   22.79
19.320     519   22.77
19.325     506   22.50
19.330     474   21.78
19.335     462   21.49
19.340     469   21.65
19.345     439   20.96
19.350     447   21.13
19.355     430   20.74
19.360     427   20.65
19.365     433   20.81
19.370     423   20.57
19.375     412   20.31
19.380     424   20.59
19.385     424   20.58
19.390     417   20.41
19.395     421   20.51
19.400     408   20.19
19.405     418   20.44
19.410     429   20.70
19.415     414   20.35
19.420     417   20.41
19.425     414   20.35
19.430     415   20.37
19.435     405   20.13
19.440     401   20.03
19.445     395   19.87
19.450     396   19.91
19.455     385   19.63
19.460     393   19.83
19.465     386   19.66
19.470     365   19.12
19.475     379   19.47
19.480     378   19.44
19.485     371   19.25
19.490     364   19.07
19.495     378   19.45
19.500     388   19.70
19.505     392   19.79
19.510     369   19.22
19.515     364   19.08
19.520     366   19.13
19.525     387   19.68
19.530     405   20.12
19.535     400   19.99
19.540     420   20.49
19.545     423   20.56
19.550     430   20.73
19.555     426   20.63
19.560     436   20.87
19.565     444   21.07
19.570     428   20.68
19.575     424   20.59
19.580     420   20.50
19.585     418   20.44
19.590     412   20.29
19.595     428   20.69
19.600     431   20.75
19.605     404   20.10
19.610     397   19.94
19.615     390   19.74
19.620     381   19.51
19.625     393   19.82
19.630     380   19.49
19.635     399   19.97
19.640     376   19.39
19.645     372   19.29
19.650     376   19.38
19.655     364   19.07
19.660     361   19.01
19.665     349   18.68
19.670     347   18.63
19.675     348   18.66
19.680     349   18.67
19.685     347   18.62
19.690     364   19.07
19.695     350   18.70
19.700     346   18.61
19.705     357   18.89
19.710     353   18.79
19.715     359   18.96
19.720     342   18.48
19.725     342   18.49
19.730     343   18.52
19.735     357   18.91
19.740     355   18.84
19.745     336   18.33
19.750     347   18.63
19.755     354   18.81
19.760     360   18.96
19.765     371   19.26
19.770     370   19.24
19.775     365   19.12
19.780     351   18.75
19.785     362   19.03
19.790     378   19.45
19.795     383   19.57
19.800     386   19.65
19.805     395   19.88
19.810     385   19.62
19.815     396   19.90
19.820     398   19.94
19.825     395   19.87
19.830     402   20.05
19.835     434   20.84
19.840     439   20.95
19.845     418   20.46
19.850     436   20.88
19.855     440   20.98
19.860     423   20.56
19.865     429   20.71
19.870     425   20.60
19.875     409   20.22
19.880     404   20.10
19.885     399   19.98
19.890     372   19.28
19.895     396   19.91
19.900     370   19.23
19.905     346   18.60
19.910     361   19.01
19.915     354   18.83
19.920     345   18.58
19.925     350   18.71
19.930     361   19.01
19.935     374   19.33
19.940     362   19.03
19.945     373   19.33
19.950     384   19.60
19.955     372   19.28
19.960     373   19.32
19.965     410   20.26
19.970     431   20.77
19.975     417   20.41
19.980     449   21.18
19.985     475   21.79
19.990     465   21.57
19.995     473   21.74
20.000     474   21.77
20.005     472   21.72
20.010     486   22.05
20.015     492   22.18
20.020     478   21.86
20.025     443   21.04
20.030     466   21.60
20.035     446   21.11
20.040     442   21.01
20.045     441   20.99
20.050     437   20.90
20.055     437   20.90
20.060     436   20.88
20.065     448   21.16
20.070     435   20.85
20.075     421   20.52
20.080     426   20.63
20.085     428   20.70
20.090     422   20.55
20.095     415   20.37
20.100     410   20.25
20.105     411   20.28
20.110     404   20.11
20.115     417   20.43
20.120     417   20.43
20.125     401   20.03
20.130     396   19.90
20.135     409   20.22
20.140     389   19.72
20.145     379   19.48
20.150     395   19.86
20.155     398   19.96
20.160     393   19.83
20.165     398   19.95
20.170     382   19.54
20.175     378   19.43
20.180     384   19.60
20.185     367   19.17
20.190     374   19.34
20.195     372   19.28
20.200     388   19.69
20.205     396   19.90
20.210     397   19.92
20.215     398   19.96
20.220     402   20.04
20.225     403   20.08
20.230     383   19.57
20.235     416   20.39
20.240     425   20.61
20.245     418   20.44
20.250     427   20.66
20.255     419   20.47
20.260     425   20.62
20.265     421   20.51
20.270     426   20.65
20.275     433   20.82
20.280     432   20.80
20.285     430   20.74
20.290     464   21.54
20.295     448   21.17
20.300     457   21.38
20.305     452   21.25
20.310     460   21.45
20.315     447   21.14
20.320     452   21.26
20.325     438   20.93
20.330     439   20.95
20.335     455   21.32
20.340     410   20.26
20.345     431   20.75
20.350     439   20.95
20.355     454   21.30
20.360     435   20.86
20.365     439   20.95
20.370     432   20.77
20.375     442   21.03
20.380     435   20.86
20.385     454   21.31
20.390     456   21.36
20.395     473   21.75
20.400     486   22.03
20.405     505   22.48
20.410     501   22.39
20.415     507   22.51
20.420     504   22.45
20.425     503   22.42
20.430     524   22.89
20.435     511   22.60
20.440     515   22.70
20.445     510   22.58
20.450     528   22.98
20.455     525   22.91
20.460     530   23.03
20.465     522   22.86
20.470     534   23.11
20.475     535   23.12
20.480     537   23.18
20.485     521   22.82
20.490     500   22.36
20.495     505   22.47
20.500     471   21.70
20.505     459   21.41
20.510     444   21.07
20.515     426   20.63
20.520     431   20.77
20.525     417   20.41
20.530     401   20.02
20.535     402   20.06
20.540     390   19.74
20.545     375   19.36
20.550     373   19.32
20.555     361   19.00
20.560     374   19.33
20.565     368   19.18
20.570     381   19.52
20.575     376   19.39
20.580     378   19.45
20.585     379   19.47
20.590     368   19.19
20.595     373   19.31
20.600     374   19.34
20.605     383   19.57
20.610     362   19.02
20.615     388   19.71
20.620     368   19.19
20.625     373   19.32
20.630     367   19.16
20.635     364   19.08
20.640     367   19.16
20.645     366   19.13
20.650     369   19.20
20.655     360   18.97
20.660     374   19.33
20.665     374   19.33
20.670     390   19.75
20.675     370   19.24
20.680     381   19.52
20.685     392   19.80
20.690     368   19.18
20.695     362   19.03
20.700     369   19.22
20.705     360   18.97
20.710     367   19.16
20.715     364   19.08
20.720     373   19.32
20.725     367   19.15
20.730     343   18.52
20.735     341   18.47
20.740     358   18.93
20.745     346   18.61
20.750     332   18.22
20.755     321   17.93
20.760     314   17.73
20.765     323   17.96
20.770     316   17.78
20.775     308   17.54
20.780     317   17.80
20.785     296   17.21
20.790     298   17.27
20.795     301   17.35
20.800     316   17.77
20.805     299   17.28
20.810     298   17.27
20.815     304   17.43
20.820     304   17.44
20.825     302   17.37
20.830     286   16.90
20.835     298   17.26
20.840     306   17.49
20.845     317   17.80
20.850     309   17.58
20.855     317   17.82
20.860     326   18.04
20.865     327   18.07
20.870     338   18.39
20.875     333   18.25
20.880     348   18.66
20.885     357   18.90
20.890     364   19.09
20.895     368   19.19
20.900     399   19.98
20.905     378   19.44
20.910     395   19.87
20.915     395   19.89
20.920     411   20.27
20.925     418   20.46
20.930     405   20.13
20.935     418   20.44
20.940     416   20.39
20.945     404   20.11
20.950     420   20.51
20.955     398   19.95
20.960     411   20.28
20.965     399   19.97
20.970     396   19.91
20.975     386   19.64
20.980     380   19.48
20.985     394   19.86
20.990     408   20.19
20.995     404   20.11
21.000     414   20.35
21.005     420   20.50
21.010     444   21.07
21.015     453   21.28
21.020     472   21.72
21.025     475   21.80
21.030     458   21.40
21.035     471   21.69
21.040     463   21.52
21.045     449   21.19
21.050     429   20.72
21.055     428   20.68
21.060     421   20.51
21.065     410   20.26
21.070     394   19.85
21.075     387   19.67
21.080     375   19.37
21.085     371   19.26
21.090     356   18.86
21.095     328   18.11
21.100     342   18.49
21.105     314   17.72
21.110     328   18.10
21.115     313   17.69
21.120     309   17.57
21.125     309   17.59
21.130     307   17.52
21.135     301   17.36
21.140     286   16.90
21.145     312   17.66
21.150     300   17.32
21.155     309   17.57
21.160     317   17.80
21.165     304   17.42
21.170     305   17.46
21.175     307   17.51
21.180     310   17.59
21.185     312   17.66
21.190     310   17.61
21.195     310   17.60
21.200     326   18.07
21.205     316   17.77
21.210     309   17.58
21.215     325   18.01
21.220     332   18.22
21.225     325   18.01
21.230     336   18.33
21.235     337   18.35
21.240     331   18.20
21.245     338   18.39
21.250     344   18.55
21.255     330   18.16
21.260     334   18.27
21.265     336   18.34
21.270     331   18.20
21.275     339   18.41
21.280     332   18.21
21.285     334   18.29
21.290     326   18.04
21.295     316   17.78
21.300     327   18.09
21.305     334   18.27
21.310     325   18.04
21.315     338   18.38
21.320     360   18.96
21.325     354   18.82
21.330     351   18.74
21.335     353   18.80
21.340     360   18.99
21.345     356   18.88
21.350     366   19.12
21.355     369   19.20
21.360     371   19.25
21.365     375   19.38
21.370     395   19.87
21.375     370   19.24
21.380     411   20.28
21.385     413   20.32
21.390     438   20.93
21.395     439   20.95
21.400     451   21.23
21.405     475   21.80
21.410     477   21.83
21.415     487   22.06
21.420     504   22.46
21.425     502   22.41
21.430     519   22.79
21.435     506   22.49
21.440     527   22.95
21.445     521   22.82
21.450     517   22.74
21.455     517   22.75
21.460     520   22.81
21.465     524   22.90
21.470     522   22.84
21.475     501   22.37
21.480     499   22.33
21.485     497   22.30
21.490     487   22.07
21.495     467   21.61
21.500     455   21.33
21.505     459   21.43
21.510     438   20.92
21.515     447   21.14
21.520     410   20.26
21.525     409   20.23
21.530     387   19.66
21.535     388   19.71
21.540     395   19.87
21.545     378   19.44
21.550     362   19.01
21.555     358   18.91
21.560     345   18.59
21.565     352   18.77
21.570     331   18.18
21.575     336   18.32
21.580     329   18.14
21.585     321   17.93
21.590     328   18.11
21.595     317   17.81
21.600     311   17.63
21.605     314   17.73
21.610     293   17.12
21.615     322   17.95
21.620     318   17.82
21.625     308   17.54
21.630     299   17.29
21.635     308   17.55
21.640     296   17.20
21.645     321   17.93
21.650     323   17.97
21.655     296   17.20
21.660     306   17.49
21.666     300   17.32
21.671     292   17.09
21.675     299   17.28
21.680     296   17.21
21.686     281   16.77
21.691     299   17.28
21.695     295   17.17
21.701     297   17.23
21.706     279   16.70
21.710     286   16.91
21.715     294   17.15
21.721     291   17.06
21.726     281   16.77
21.730     286   16.91
21.735     290   17.01
21.741     275   16.59
21.745     281   16.78
21.750     274   16.57
21.756     276   16.62
21.761     273   16.52
21.765     262   16.20
21.770     270   16.43
21.776     274   16.55
21.780     264   16.26
21.785     271   16.45
21.791     256   16.01
21.796     268   16.36
21.800     265   16.28
21.805     277   16.65
21.811     275   16.59
21.816     271   16.45
21.820     273   16.52
21.826     287   16.94
21.831     283   16.82
21.835     278   16.68
21.840     272   16.49
21.846     293   17.12
21.851     296   17.20
21.855     293   17.12
21.860     288   16.98
21.866     304   17.44
21.870     319   17.86
21.875     334   18.27
21.881     340   18.43
21.886     347   18.62
21.890     348   18.67
21.895     360   18.97
21.901     366   19.12
21.905     393   19.83
21.910     376   19.39
21.916     369   19.20
21.921     383   19.56
21.925     396   19.89
21.930     393   19.81
21.936     381   19.51
21.941     358   18.93
21.945     370   19.23
21.951     359   18.96
21.956     368   19.18
21.960     339   18.42
21.965     348   18.67
21.971     357   18.90
21.976     356   18.87
21.980     354   18.81
21.985     366   19.13
21.991     360   18.97
21.995     357   18.89
22.000     364   19.08
22.006     355   18.85
22.011     363   19.05
22.015     362   19.04
22.020     358   18.92
22.026     368   19.18
22.030     360   18.96
22.035     353   18.79
22.041     367   19.17
22.046     348   18.65
22.050     342   18.51
22.055     356   18.87
22.061     323   17.97
22.066     323   17.99
22.070     323   17.97
22.076     328   18.12
22.081     324   18.01
22.085     306   17.50
22.090     312   17.67
22.096     285   16.87
22.101     306   17.49
22.105     305   17.48
22.110     285   16.89
22.116     291   17.05
22.120     289   17.01
22.125     288   16.98
22.131     301   17.34
22.136     292   17.10
22.140     290   17.04
22.145     278   16.68
22.151     276   16.60
22.155     278   16.68
22.160     280   16.73
22.166     266   16.32
22.171     278   16.67
22.175     285   16.88
22.180     279   16.70
22.186     267   16.33
22.191     283   16.84
22.195     292   17.08
22.201     282   16.79
22.206     274   16.55
22.210     282   16.78
22.215     284   16.86
22.221     287   16.96
22.226     289   17.01
22.230     279   16.71
22.235     296   17.19
22.241     301   17.36
22.245     300   17.33
22.250     302   17.39
22.256     305   17.47
22.261     331   18.19
22.265     328   18.11
22.270     336   18.32
22.276     343   18.53
22.280     365   19.11
22.285     381   19.53
22.291     381   19.52
22.296     394   19.86
22.300     403   20.08
22.305     405   20.12
22.311     390   19.76
22.316     372   19.30
22.320     381   19.53
22.326     371   19.26
22.331     367   19.15
22.335     363   19.06
22.340     357   18.88
22.346     350   18.71
22.351     337   18.36
22.355     331   18.20
22.360     341   18.47
22.366     317   17.79
22.370     314   17.72
22.375     319   17.85
22.381     322   17.95
22.386     313   17.69
22.390     321   17.92
22.395     317   17.80
22.401     337   18.36
22.405     330   18.16
22.410     331   18.21
22.416     337   18.35
22.421     351   18.75
22.425     343   18.51
22.430     353   18.80
22.436     362   19.04
22.441     364   19.08
22.445     380   19.49
22.451     376   19.40
22.456     370   19.24
22.460     397   19.93
22.465     392   19.80
22.471     380   19.49
22.476     385   19.63
22.480     388   19.70
22.485     388   19.70
22.491     394   19.84
22.495     407   20.17
22.500     391   19.78
22.506     391   19.77
22.511     366   19.14
22.515     374   19.33
22.520     399   19.96
22.526     372   19.28
22.530     368   19.19
22.535     359   18.94
22.541     347   18.61
22.546     361   18.99
22.550     349   18.68
22.555     343   18.52
22.561     339   18.40
22.566     334   18.28
22.570     318   17.84
22.576     328   18.10
22.581     311   17.63
22.585     299   17.29
22.590     316   17.76
22.596     300   17.31
22.601     299   17.28
22.605     288   16.97
22.610     293   17.11
22.616     290   17.04
22.620     280   16.75
22.625     278   16.67
22.631     288   16.97
22.636     271   16.47
22.640     265   16.28
22.645     269   16.39
22.651     273   16.52
22.655     274   16.56
22.660     280   16.74
22.666     283   16.81
22.671     288   16.97
22.675     292   17.09
22.680     287   16.93
22.686     275   16.60
22.691     300   17.31
22.695     278   16.68
22.701     291   17.05
22.706     282   16.78
22.710     289   16.99
22.715     292   17.09
22.721     302   17.37
22.726     295   17.18
22.730     303   17.39
22.735     291   17.06
22.741     297   17.24
22.745     298   17.26
22.750     291   17.05
22.756     301   17.34
22.761     301   17.34
22.765     318   17.84
22.770     300   17.32
22.776     313   17.70
22.780     332   18.23
22.785     333   18.24
22.791     328   18.12
22.796     339   18.42
22.800     341   18.48
22.805     349   18.67
22.811     347   18.63
22.816     361   18.99
22.820     353   18.79
22.826     370   19.24
22.831     372   19.30
22.835     370   19.23
22.840     368   19.19
22.846     382   19.56
22.851     384   19.61
22.855     383   19.58
22.860     364   19.08
22.866     380   19.50
22.870     374   19.35
22.875     376   19.39
22.881     371   19.26
22.886     360   18.98
22.890     377   19.41
22.895     375   19.36
22.901     357   18.89
22.905     372   19.29
22.910     372   19.28
22.916     356   18.86
22.921     365   19.10
22.925     358   18.91
22.930     347   18.64
22.936     349   18.67
22.941     353   18.78
22.945     347   18.63
22.951     348   18.66
22.956     333   18.24
22.960     328   18.12
22.965     325   18.02
22.971     321   17.92
22.976     327   18.09
22.980     306   17.50
22.985     322   17.95
22.991     322   17.93
22.995     327   18.09
23.000     321   17.90
23.006     300   17.33
23.011     311   17.65
23.015     314   17.72
23.020     323   17.96
23.026     322   17.95
23.030     325   18.03
23.035     332   18.21
23.041     316   17.77
23.046     315   17.75
23.050     323   17.96
23.055     329   18.13
23.061     318   17.83
23.066     315   17.76
23.070     333   18.26
23.076     326   18.07
23.081     324   18.00
23.085     323   17.96
23.090     332   18.22
23.096     341   18.47
23.101     325   18.03
23.105     343   18.52
23.110     323   17.98
23.116     332   18.22
23.120     335   18.31
23.125     341   18.48
23.131     358   18.92
23.136     337   18.35
23.140     360   18.98
23.145     382   19.54
23.151     384   19.60
23.155     372   19.29
23.160     382   19.56
23.166     369   19.20
23.171     373   19.31
23.175     379   19.46
23.180     381   19.52
23.186     378   19.45
23.191     375   19.36
23.195     380   19.49
23.201     393   19.83
23.206     383   19.57
23.210     379   19.46
23.215     382   19.54
23.221     372   19.29
23.226     363   19.05
23.230     357   18.90
23.235     348   18.67
23.241     339   18.41
23.245     327   18.08
23.250     322   17.93
23.256     328   18.10
23.261     314   17.72
23.265     314   17.72
23.270     314   17.72
23.276     288   16.97
23.280     272   16.51
23.285     271   16.45
23.291     284   16.85
23.296     276   16.61
23.300     269   16.41
23.305     274   16.55
23.311     275   16.59
23.316     290   17.03
23.320     277   16.63
23.326     272   16.48
23.331     276   16.62
23.335     260   16.12
23.340     273   16.52
23.346     254   15.95
23.351     255   15.98
23.355     246   15.70
23.360     263   16.22
23.366     258   16.07
23.370     240   15.48
23.375     251   15.86
23.381     249   15.79
23.386     235   15.33
23.390     249   15.76
23.395     237   15.39
23.401     225   15.00
23.405     240   15.50
23.410     234   15.31
23.416     247   15.73
23.421     244   15.63
23.425     243   15.60
23.430     253   15.92
23.436     239   15.47
23.441     231   15.21
23.445     234   15.31
23.451     236   15.37
23.456     251   15.83
23.460     237   15.39
23.465     247   15.73
23.471     232   15.24
23.476     255   15.95
23.480     242   15.55
23.485     249   15.78
23.491     243   15.57
23.495     230   15.15
23.500     239   15.47
23.506     248   15.75
23.511     243   15.59
23.515     236   15.35
23.520     234   15.30
23.526     235   15.32
23.530     247   15.71
23.535     257   16.02
23.541     235   15.34
23.546     238   15.42
23.550     251   15.84
23.555     244   15.61
23.561     260   16.11
23.566     261   16.16
23.570     252   15.86
23.576     246   15.69
23.581     258   16.05
23.585     249   15.77
23.590     250   15.82
23.596     257   16.02
23.601     266   16.30
23.605     257   16.04
23.610     254   15.92
23.616     255   15.98
23.620     256   15.99
23.625     254   15.93
23.631     260   16.12
23.636     268   16.36
23.640     265   16.28
23.645     269   16.39
23.651     278   16.68
23.655     274   16.57
23.660     279   16.69
23.666     286   16.93
23.671     278   16.69
23.675     286   16.92
23.680     301   17.36
23.686     307   17.51
23.691     327   18.08
23.695     311   17.64
23.701     324   18.00
23.706     320   17.90
23.710     323   17.96
23.715     333   18.24
23.721     330   18.17
23.726     335   18.31
23.730     347   18.62
23.735     352   18.76
23.741     340   18.45
23.745     347   18.62
23.750     356   18.87
23.756     366   19.12
23.761     355   18.84
23.765     341   18.46
23.770     356   18.88
23.776     341   18.47
23.780     350   18.71
23.785     335   18.31
23.791     325   18.03
23.796     334   18.28
23.800     330   18.18
23.805     319   17.85
23.811     331   18.20
23.816     307   17.53
23.820     309   17.58
23.826     308   17.54
23.831     288   16.97
23.835     301   17.34
23.840     285   16.89
23.846     278   16.69
23.851     279   16.71
23.855     281   16.77
23.860     270   16.43
23.866     273   16.54
23.870     272   16.48
23.875     268   16.36
23.881     260   16.12
23.886     259   16.09
23.890     262   16.19
23.895     265   16.28
23.901     261   16.14
23.905     256   15.99
23.910     248   15.76
23.916     270   16.43
23.921     254   15.95
23.925     258   16.07
23.930     265   16.28
23.936     259   16.09
23.941     271   16.46
23.945     270   16.44
23.951     278   16.67
23.956     279   16.70
23.960     276   16.62
23.965     286   16.92
23.971     297   17.24
23.976     280   16.74
23.980     297   17.22
23.985     288   16.98
23.991     304   17.44
23.995     300   17.31
24.000     309   17.58
24.006     309   17.57
24.011     309   17.59
24.015     301   17.36
24.020     308   17.56
24.026     307   17.52
24.030     309   17.57
24.035     310   17.62
24.041     311   17.63
24.046     305   17.46
24.050     302   17.37
24.055     297   17.23
24.061     316   17.76
24.066     315   17.75
24.070     313   17.69
24.076     304   17.43
24.081     302   17.38
24.085     309   17.58
24.090     313   17.70
24.096     300   17.33
24.101     314   17.72
24.105     314   17.73
24.110     303   17.41
24.116     314   17.73
24.120     306   17.48
24.125     304   17.44
24.131     321   17.90
24.136     312   17.66
24.140     317   17.82
24.145     314   17.73
24.151     326   18.07
24.155     319   17.87
24.160     322   17.94
24.166     321   17.92
24.171     322   17.95
24.175     345   18.58
24.180     316   17.77
24.186     322   17.96
24.191     304   17.44
24.195     332   18.22
24.201     320   17.89
24.206     347   18.64
24.210     353   18.80
24.215     343   18.51
24.221     328   18.11
24.226     338   18.37
24.230     342   18.49
24.235     345   18.58
24.241     350   18.71
24.245     336   18.34
24.250     339   18.40
24.256     347   18.64
24.261     343   18.51
24.265     323   17.98
24.270     332   18.23
24.276     329   18.14
24.280     329   18.14
24.285     318   17.83
24.291     323   17.97
24.296     330   18.15
24.300     317   17.80
24.305     322   17.93
24.311     322   17.95
24.316     331   18.20
24.320     326   18.06
24.326     333   18.24
24.331     318   17.82
24.335     304   17.43
24.340     316   17.78
24.346     308   17.54
24.351     309   17.56
24.355     323   17.98
24.360     311   17.62
24.366     314   17.73
24.370     309   17.59
24.375     301   17.36
24.381     303   17.40
24.386     309   17.57
24.390     314   17.73
24.395     304   17.44
24.401     295   17.17
24.405     292   17.08
24.410     299   17.28
24.416     303   17.41
24.421     300   17.31
24.425     279   16.71
24.430     280   16.72
24.436     275   16.58
24.441     296   17.20
24.445     293   17.12
24.451     283   16.82
24.456     272   16.49
24.460     278   16.67
24.465     281   16.76
24.471     264   16.25
24.476     271   16.47
24.480     261   16.14
24.485     260   16.12
24.491     262   16.19
24.495     262   16.18
24.500     262   16.20
24.506     253   15.91
24.511     266   16.31
24.515     266   16.32
24.520     262   16.17
24.526     256   16.00
24.530     250   15.82
24.535     240   15.49
24.541     257   16.03
24.546     270   16.43
24.550     244   15.62
24.555     260   16.13
24.561     261   16.16
24.566     267   16.33
24.570     267   16.33
24.576     258   16.07
24.581     266   16.30
24.585     270   16.44
24.590     288   16.97
24.596     273   16.52
24.601     268   16.37
24.605     280   16.75
24.610     269   16.39
24.616     277   16.63
24.620     275   16.59
24.625     282   16.78
24.631     282   16.78
24.636     281   16.76
24.640     277   16.64
24.645     264   16.25
24.651     276   16.62
24.655     270   16.43
24.660     267   16.33
24.666     262   16.20
24.671     270   16.44
24.675     252   15.87
24.680     254   15.93
24.686     260   16.12
24.691     259   16.09
24.695     252   15.87
24.701     260   16.13
24.706     245   15.66
24.710     268   16.37
24.715     267   16.34
24.721     256   15.99
24.726     268   16.36
24.730     265   16.28
24.735     262   16.19
24.741     254   15.92
24.745     263   16.20
24.750     267   16.33
24.756     273   16.52
24.761     276   16.61
24.765     280   16.72
24.770     283   16.82
24.776     282   16.79
24.780     300   17.31
24.785     310   17.60
24.791     314   17.73
24.796     320   17.89
24.800     320   17.88
24.805     311   17.65
24.811     334   18.28
24.816     332   18.23
24.820     327   18.07
24.826     330   18.18
24.831     366   19.13
24.835     352   18.75
24.840     354   18.82
24.846     350   18.72
24.851     352   18.75
24.855     349   18.69
24.860     347   18.63
24.866     349   18.68
24.870     353   18.80
24.875     340   18.45
24.881     323   17.97
24.886     318   17.83
24.890     333   18.26
24.895     331   18.19
24.901     325   18.03
24.905     326   18.05
24.910     328   18.11
24.916     314   17.73
24.921     305   17.47
24.925     310   17.60
24.930     305   17.47
24.936     313   17.69
24.941     296   17.20
24.945     294   17.15
24.951     287   16.94
24.956     308   17.55
24.960     287   16.94
24.965     293   17.11
24.971     292   17.10
24.976     290   17.03
24.980     276   16.61
24.985     269   16.41
24.991     259   16.09
24.995     265   16.29
25.000     275   16.59
25.006     275   16.58
25.011     265   16.29
25.015     254   15.92
25.020     270   16.44
25.026     275   16.59
25.030     255   15.98
25.035     257   16.02
25.041     249   15.79
25.046     254   15.95
25.050     254   15.95
25.055     260   16.13
25.061     253   15.92
25.066     237   15.39
25.070     257   16.04
25.076     248   15.75
25.081     254   15.94
25.085     256   15.99
25.090     260   16.14
25.096     260   16.14
25.101     249   15.79
25.105     252   15.89
25.110     245   15.66
25.116     259   16.09
25.120     244   15.60
25.125     242   15.54
25.131     246   15.70
25.136     228   15.11
25.140     236   15.37
25.145     235   15.33
25.151     225   14.99
25.155     232   15.23
25.160     231   15.21
25.166     229   15.15
25.171     217   14.72
25.175     231   15.19
25.180     238   15.44
25.186     233   15.25
25.191     224   14.98
25.195     220   14.82
25.201     221   14.87
25.206     225   15.00
25.210     219   14.79
25.215     215   14.68
25.221     220   14.84
25.226     221   14.85
25.230     217   14.73
25.235     219   14.79
25.241     224   14.96
25.245     233   15.27
25.250     221   14.85
25.256     235   15.35
25.261     216   14.69
25.265     216   14.69
25.270     217   14.73
25.276     211   14.52
25.280     218   14.77
25.285     205   14.30
25.291     226   15.04
25.296     212   14.56
25.300     214   14.61
25.305     206   14.34
25.311     230   15.16
25.316     228   15.09
25.320     229   15.12
25.326     209   14.45
25.331     221   14.85
25.335     228   15.11
25.340     211   14.53
25.346     212   14.57
25.351     226   15.03
25.355     210   14.49
25.360     242   15.55
25.366     221   14.87
25.370     221   14.88
25.375     217   14.72
25.381     212   14.57
25.386     238   15.42
25.390     227   15.05
25.395     243   15.60
25.401     224   14.98
25.405     237   15.38
25.410     238   15.44
25.416     251   15.83
25.421     255   15.97
25.425     245   15.67
25.430     263   16.22
25.436     265   16.27
25.441     251   15.85
25.445     244   15.62
25.451     264   16.25
25.456     269   16.41
25.460     259   16.08
25.465     262   16.19
25.471     277   16.64
25.476     276   16.61
25.480     281   16.76
25.485     264   16.25
25.491     298   17.25
25.495     264   16.26
25.500     287   16.94
25.506     277   16.66
25.511     276   16.63
25.515     271   16.47
25.520     272   16.49
25.526     256   16.00
25.530     281   16.77
25.535     268   16.36
25.541     263   16.20
25.546     265   16.26
25.550     264   16.24
25.555     256   16.01
25.561     252   15.88
25.566     247   15.71
25.570     254   15.94
25.576     242   15.55
25.581     237   15.39
25.585     248   15.74
25.590     232   15.25
25.596     239   15.45
25.601     240   15.48
25.605     241   15.54
25.610     237   15.38
25.616     255   15.96
25.620     251   15.83
25.625     263   16.21
25.631     274   16.56
25.636     296   17.22
25.640     301   17.34
25.645     323   17.98
25.651     326   18.06
25.655     344   18.56
25.660     348   18.66
25.666     352   18.75
25.671     361   19.00
25.675     355   18.84
25.680     362   19.03
25.686     346   18.60
25.691     356   18.86
25.695     355   18.84
25.701     354   18.83
25.706     358   18.93
25.710     345   18.57
25.715     347   18.62
25.721     334   18.29
25.726     354   18.80
25.730     345   18.58
25.735     357   18.91
25.741     374   19.33
25.745     354   18.81
25.750     376   19.38
25.756     358   18.92
25.761     374   19.33
25.765     362   19.02
25.770     349   18.69
25.776     358   18.92
25.780     355   18.84
25.785     364   19.09
25.791     357   18.90
25.796     354   18.82
25.800     358   18.92
25.805     351   18.73
25.811     333   18.24
25.816     341   18.47
25.820     346   18.61
25.826     366   19.12
25.831     340   18.43
25.835     353   18.78
25.840     354   18.81
25.846     347   18.62
25.851     347   18.63
25.855     340   18.43
25.860     337   18.37
25.866     326   18.05
25.870     332   18.23
25.875     313   17.68
25.881     331   18.20
25.886     322   17.93
25.890     323   17.98
25.895     333   18.26
25.901     359   18.95
25.905     361   19.00
25.910     347   18.64
25.916     356   18.86
25.921     357   18.90
25.925     356   18.86
25.930     358   18.92
25.936     350   18.71
25.941     360   18.98
25.945     345   18.57
25.951     346   18.61
25.956     340   18.43
25.960     310   17.60
25.965     294   17.14
25.971     290   17.03
25.976     294   17.15
25.980     286   16.92
25.985     276   16.62
25.991     273   16.53
25.995     266   16.31
26.000     258   16.06
26.006     267   16.35
26.011     258   16.05
26.015     262   16.18
26.020     249   15.77
26.026     249   15.78
26.031     252   15.86
26.035     252   15.87
26.041     255   15.95
26.046     260   16.12
26.051     254   15.95
26.055     249   15.77
26.061     250   15.83
26.066     248   15.75
26.071     239   15.46
26.076     241   15.54
26.081     255   15.96
26.086     257   16.03
26.091     247   15.70
26.096     266   16.32
26.101     259   16.09
26.106     253   15.92
26.111     255   15.96
26.116     265   16.28
26.121     264   16.26
26.126     262   16.18
26.131     253   15.91
26.136     263   16.20
26.141     254   15.94
26.146     257   16.04
26.151     251   15.85
26.156     248   15.74
26.161     257   16.03
26.166     254   15.94
26.171     248   15.74
26.176     259   16.09
26.181     258   16.06
26.186     273   16.51
26.191     262   16.18
26.196     254   15.95
26.201     247   15.72
26.206     268   16.36
26.211     279   16.69
26.216     281   16.75
26.221     272   16.51
26.226     288   16.96
26.231     272   16.48
26.236     279   16.69
26.241     286   16.91
26.246     294   17.16
26.251     279   16.70
26.256     280   16.73
26.261     285   16.89
26.266     293   17.11
26.271     279   16.69
26.276     295   17.17
26.281     300   17.31
26.286     283   16.84
26.291     300   17.32
26.296     294   17.15
26.301     299   17.30
26.306     300   17.33
26.311     294   17.16
26.316     302   17.39
26.321     305   17.46
26.326     291   17.06
26.331     292   17.10
26.336     295   17.17
26.341     289   17.00
26.346     297   17.25
26.351     291   17.07
26.356     286   16.93
26.361     285   16.87
26.366     282   16.80
26.371     268   16.38
26.376     289   17.00
26.381     282   16.79
26.386     270   16.42
26.391     281   16.78
26.396     263   16.23
26.401     284   16.85
26.406     287   16.94
26.411     281   16.75
26.416     295   17.17
26.421     286   16.92
26.426     286   16.92
26.431     281   16.77
26.436     297   17.23
26.441     288   16.97
26.446     299   17.29
26.451     294   17.13
26.456     292   17.10
26.461     284   16.84
26.466     284   16.85
26.471     283   16.82
26.476     269   16.40
26.481     277   16.65
26.486     274   16.55
26.491     277   16.65
26.496     285   16.88
26.501     266   16.29
26.506     294   17.15
26.511     269   16.39
26.516     263   16.23
26.521     266   16.32
26.526     251   15.85
26.531     256   16.00
26.536     259   16.11
26.541     260   16.11
26.546     251   15.84
26.551     235   15.34
26.556     249   15.79
26.561     248   15.76
26.566     240   15.51
26.571     242   15.54
26.576     236   15.36
26.581     251   15.86
26.586     245   15.64
26.591     256   15.99
26.596     255   15.97
26.601     259   16.09
26.606     268   16.36
26.611     271   16.46
26.616     267   16.35
26.621     273   16.53
26.626     284   16.84
26.631     290   17.02
26.636     289   17.00
26.641     269   16.40
26.646     278   16.67
26.651     273   16.54
26.656     272   16.50
26.661     277   16.66
26.666     266   16.32
26.671     270   16.44
26.676     269   16.41
26.681     276   16.62
26.686     275   16.59
26.691     267   16.33
26.696     283   16.83
26.701     275   16.58
26.706     271   16.47
26.711     281   16.77
26.716     270   16.44
26.721     258   16.07
26.726     269   16.39
26.731     269   16.39
26.736     265   16.29
26.741     279   16.69
26.746     277   16.63
26.751     268   16.36
26.756     270   16.44
26.761     275   16.58
26.766     274   16.55
26.771     279   16.69
26.776     273   16.51
26.781     279   16.70
26.786     274   16.55
26.791     275   16.58
26.796     289   17.00
26.801     300   17.31
26.806     299   17.28
26.811     282   16.80
26.816     296   17.19
26.821     311   17.63
26.826     294   17.15
26.831     304   17.43
26.836     304   17.43
26.841     309   17.57
26.846     308   17.54
26.851     301   17.35
26.856     302   17.39
26.861     324   18.01
26.866     323   17.96
26.871     339   18.42
26.876     315   17.74
26.881     335   18.30
26.886     301   17.35
26.891     317   17.80
26.896     302   17.37
26.901     303   17.41
26.906     306   17.49
26.911     306   17.48
26.916     316   17.78
26.921     301   17.36
26.926     294   17.15
26.931     295   17.17
26.936     296   17.20
26.941     292   17.08
26.946     277   16.66
26.951     285   16.87
26.956     287   16.95
26.961     282   16.80
26.966     269   16.41
26.971     268   16.37
26.976     263   16.23
26.981     273   16.51
26.986     270   16.42
26.991     292   17.08
26.996     269   16.40
27.001     258   16.07
27.006     253   15.89
27.011     250   15.81
27.016     247   15.72
27.021     246   15.69
27.026     245   15.65
27.031     250   15.80
27.036     249   15.79
27.041     233   15.27
27.046     247   15.71
27.051     234   15.30
27.056     251   15.84
27.061     241   15.52
27.066     247   15.72
27.071     255   15.96
27.076     242   15.55
27.081     264   16.26
27.086     248   15.75
27.091     272   16.50
27.096     260   16.14
27.101     273   16.53
27.106     255   15.96
27.111     265   16.28
27.116     284   16.85
27.121     280   16.74
27.126     274   16.56
27.131     288   16.96
27.136     284   16.86
27.141     300   17.32
27.146     291   17.07
27.151     306   17.49
27.156     285   16.90
27.161     314   17.72
27.166     300   17.33
27.171     325   18.02
27.176     316   17.79
27.181     314   17.71
27.186     325   18.01
27.191     315   17.74
27.196     320   17.90
27.201     340   18.45
27.206     329   18.13
27.211     337   18.35
27.216     335   18.30
27.221     333   18.26
27.226     338   18.38
27.231     323   17.97
27.236     326   18.07
27.241     323   17.96
27.246     306   17.50
27.251     320   17.87
27.256     322   17.96
27.261     327   18.07
27.266     310   17.62
27.271     303   17.41
27.276     311   17.64
27.281     319   17.85
27.286     310   17.62
27.291     310   17.60
27.296     322   17.95
27.301     295   17.18
27.306     302   17.37
27.311     302   17.39
27.316     288   16.97
27.321     298   17.26
27.326     286   16.90
27.331     295   17.18
27.336     282   16.80
27.341     282   16.79
27.346     292   17.08
27.351     279   16.72
27.356     292   17.10
27.361     269   16.39
27.366     277   16.63
27.371     259   16.09
27.376     272   16.48
27.381     270   16.44
27.386     268   16.38
27.391     254   15.94
27.396     260   16.13
27.401     263   16.23
27.406     251   15.83
27.411     258   16.07
27.416     250   15.81
27.421     259   16.09
27.426     234   15.30
27.431     246   15.67
27.436     249   15.79
27.441     245   15.66
27.446     244   15.63
27.451     239   15.46
27.456     243   15.57
27.461     243   15.57
27.466     245   15.64
27.471     234   15.30
27.476     237   15.39
27.481     239   15.45
27.486     259   16.10
27.491     246   15.68
27.496     244   15.62
27.501     237   15.40
27.506     254   15.92
27.511     242   15.56
27.516     247   15.71
27.521     248   15.75
27.526     251   15.85
27.531     240   15.48
27.536     248   15.74
27.541     243   15.58
27.546     231   15.20
27.551     246   15.67
27.556     239   15.45
27.561     241   15.52
27.566     234   15.29
27.571     233   15.28
27.576     243   15.58
27.581     235   15.33
27.586     237   15.38
27.591     232   15.25
27.596     228   15.10
27.601     222   14.89
27.606     237   15.41
27.611     221   14.88
27.616     230   15.15
27.621     232   15.23
27.626     226   15.03
27.631     242   15.57
27.636     235   15.33
27.641     237   15.40
27.646     244   15.62
27.651     229   15.12
27.656     235   15.33
27.661     250   15.81
27.666     242   15.56
27.671     253   15.89
27.676     255   15.96
27.681     267   16.34
27.686     239   15.46
27.691     258   16.07
27.696     259   16.10
27.701     257   16.04
27.706     257   16.03
27.711     254   15.95
27.716     239   15.47
27.721     260   16.11
27.726     254   15.92
27.731     241   15.53
27.736     250   15.80
27.741     258   16.06
27.746     249   15.77
27.751     253   15.89
27.756     261   16.15
27.761     253   15.90
27.766     248   15.76
27.771     254   15.94
27.776     254   15.94
27.781     264   16.26
27.786     256   16.01
27.791     262   16.17
27.796     261   16.14
27.801     258   16.07
27.806     259   16.08
27.811     275   16.59
27.816     265   16.27
27.821     262   16.19
27.826     262   16.20
27.831     270   16.43
27.836     253   15.91
27.841     255   15.98
27.846     263   16.22
27.851     276   16.61
27.856     261   16.14
27.861     255   15.97
27.866     272   16.48
27.871     263   16.20
27.876     278   16.67
27.881     278   16.66
27.886     272   16.50
27.891     263   16.21
27.896     274   16.56
27.901     264   16.25
27.906     271   16.45
27.911     270   16.42
27.916     282   16.79
27.921     270   16.44
27.926     283   16.81
27.931     279   16.69
27.936     275   16.57
27.941     268   16.37
27.946     268   16.38
27.951     277   16.66
27.956     271   16.48
27.961     279   16.70
27.966     286   16.91
27.971     274   16.56
27.976     284   16.86
27.981     284   16.87
27.986     267   16.36
27.991     282   16.78
27.996     286   16.91
28.001     282   16.79
28.006     274   16.57
28.011     279   16.69
28.016     284   16.84
28.021     276   16.60
28.026     283   16.81
28.031     289   17.00
28.036     290   17.04
28.041     293   17.11
28.046     272   16.49
28.051     274   16.56
28.056     281   16.78
28.061     286   16.91
28.066     273   16.54
28.071     281   16.77
28.076     269   16.40
28.081     283   16.82
28.086     283   16.81
28.091     273   16.51
28.096     259   16.08
28.101     261   16.16
28.106     269   16.41
28.111     255   15.98
28.116     254   15.92
28.121     252   15.87
28.126     268   16.36
28.131     278   16.66
28.136     260   16.12
28.141     245   15.64
28.146     267   16.34
28.151     249   15.78
28.156     253   15.90
28.161     262   16.19
28.166     270   16.44
28.171     257   16.04
28.176     247   15.71
28.181     265   16.29
28.186     281   16.77
28.191     274   16.56
28.196     273   16.53
28.201     261   16.16
28.206     279   16.71
28.211     290   17.02
28.216     281   16.75
28.221     288   16.98
28.226     281   16.76
28.231     297   17.22
28.236     290   17.01
28.241     294   17.14
28.246     296   17.21
28.251     292   17.09
28.256     305   17.47
28.261     301   17.36
28.266     302   17.39
28.271     296   17.21
28.276     322   17.94
28.281     312   17.67
28.286     322   17.93
28.291     313   17.70
28.296     320   17.89
28.301     308   17.55
28.306     310   17.62
28.311     300   17.33
28.316     291   17.06
28.321     314   17.71
28.326     293   17.11
28.331     319   17.87
28.336     296   17.21
28.341     304   17.42
28.346     284   16.85
28.351     304   17.45
28.356     286   16.90
28.361     290   17.03
28.366     289   16.99
28.371     279   16.70
28.376     291   17.05
28.381     285   16.88
28.386     277   16.65
28.391     267   16.34
28.396     276   16.63
28.401     281   16.76
28.406     277   16.63
28.411     278   16.68
28.416     291   17.06
28.421     278   16.66
28.426     296   17.19
28.431     297   17.24
28.436     286   16.92
28.441     303   17.40
28.446     302   17.37
28.451     292   17.09
28.456     312   17.67
28.461     298   17.27
28.466     299   17.30
28.471     291   17.07
28.476     301   17.34
28.481     293   17.11
28.486     311   17.63
28.491     314   17.72
28.496     309   17.57
28.501     302   17.37
28.506     303   17.42
28.511     315   17.76
28.516     302   17.37
28.521     314   17.72
28.526     298   17.25
28.531     305   17.46
28.536     308   17.55
28.541     313   17.70
28.546     299   17.30
28.551     281   16.76
28.556     285   16.87
28.561     302   17.36
28.566     280   16.73
28.571     285   16.87
28.576     282   16.79
28.581     270   16.43
28.586     287   16.93
28.591     280   16.72
28.596     278   16.67
28.601     281   16.75
28.606     272   16.49
28.611     274   16.57
28.616     266   16.31
28.621     254   15.93
28.626     263   16.21
28.631     253   15.91
28.636     244   15.61
28.641     261   16.14
28.646     265   16.28
28.651     253   15.90
28.656     267   16.33
28.661     253   15.89
28.666     261   16.14
28.671     250   15.82
28.676     256   16.01
28.681     260   16.12
28.686     267   16.34
28.691     265   16.27
28.696     266   16.31
28.701     277   16.63
28.706     283   16.83
28.711     279   16.69
28.716     292   17.10
28.721     277   16.64
28.726     296   17.22
28.731     292   17.10
28.736     295   17.18
28.741     300   17.32
28.746     304   17.45
28.751     305   17.48
28.756     305   17.46
28.761     295   17.19
28.766     298   17.26
28.771     317   17.81
28.776     306   17.49
28.781     309   17.59
28.786     312   17.66
28.791     322   17.94
28.796     309   17.56
28.801     298   17.27
28.806     312   17.67
28.811     321   17.91
28.816     308   17.56
28.821     320   17.89
28.826     322   17.93
28.831     312   17.65
28.836     317   17.81
28.841     326   18.06
28.846     321   17.92
28.851     327   18.09
28.856     317   17.80
28.861     324   17.99
28.866     328   18.12
28.871     325   18.03
28.876     330   18.16
28.881     337   18.36
28.886     330   18.15
28.891     335   18.30
28.896     313   17.69
28.901     325   18.04
28.906     330   18.18
28.911     319   17.85
28.916     323   17.97
28.921     318   17.84
28.926     315   17.75
28.931     308   17.56
28.936     312   17.66
28.941     310   17.61
28.946     307   17.52
28.951     298   17.27
28.956     295   17.16
28.961     291   17.07
28.966     285   16.89
28.971     307   17.52
28.976     301   17.36
28.981     294   17.15
28.986     286   16.91
28.991     285   16.87
28.996     278   16.69
29.001     290   17.04
29.006     285   16.90
29.011     276   16.62
29.016     289   16.99
29.021     288   16.97
29.026     273   16.52
29.031     282   16.79
29.036     293   17.11
29.041     274   16.56
29.046     277   16.65
29.051     285   16.89
29.056     281   16.77
29.061     267   16.35
29.066     273   16.54
29.071     286   16.90
29.076     269   16.41
29.081     276   16.62
29.086     275   16.58
29.091     290   17.04
29.096     279   16.71
29.101     263   16.21
29.106     285   16.90
29.111     276   16.63
29.116     273   16.54
29.121     282   16.78
29.126     288   16.98
29.131     287   16.93
29.136     294   17.15
29.141     292   17.09
29.146     306   17.48
29.151     305   17.47
29.156     291   17.05
29.161     318   17.84
29.166     306   17.50
29.171     321   17.93
29.176     327   18.09
29.181     332   18.21
29.186     323   17.97
29.191     324   18.01
29.196     353   18.78
29.201     331   18.19
29.206     308   17.54
29.211     323   17.97
29.216     321   17.93
29.221     314   17.71
29.226     309   17.58
29.231     314   17.71
29.236     303   17.40
29.241     288   16.97
29.246     300   17.31
29.251     273   16.53
29.256     286   16.91
29.261     280   16.72
29.266     292   17.08
29.271     291   17.07
29.276     290   17.03
29.281     292   17.07
29.286     288   16.96
29.291     293   17.12
29.296     277   16.64
29.301     285   16.87
29.306     283   16.83
29.311     273   16.53
29.316     271   16.47
29.321     286   16.91
29.326     274   16.55
29.331     268   16.37
29.336     275   16.59
29.341     261   16.16
29.346     255   15.96
29.351     270   16.42
29.356     265   16.29
29.361     269   16.39
29.366     266   16.30
29.371     260   16.14
29.376     264   16.25
29.381     267   16.33
29.386     263   16.21
29.391     253   15.92
29.396     263   16.21
29.401     248   15.76
29.406     253   15.90
29.411     243   15.59
29.416     258   16.05
29.421     253   15.91
29.426     251   15.84
29.431     245   15.64
29.436     250   15.80
29.441     254   15.95
29.446     240   15.48
29.451     258   16.07
29.456     262   16.20
29.461     263   16.22
29.466     266   16.30
29.471     248   15.76
29.476     278   16.67
29.481     258   16.08
29.486     251   15.85
29.491     259   16.10
29.496     271   16.47
29.501     257   16.02
29.506     259   16.08
29.511     257   16.03
29.516     256   16.01
29.521     259   16.10
29.526     264   16.24
29.531     265   16.27
29.536     269   16.41
29.541     261   16.16
29.546     269   16.40
29.551     262   16.20
29.556     266   16.31
29.561     271   16.46
29.566     264   16.26
29.571     272   16.51
29.576     276   16.60
29.581     280   16.73
29.586     276   16.62
29.591     267   16.34
29.596     286   16.93
29.601     286   16.92
29.606     291   17.06
29.611     301   17.34
29.616     273   16.52
29.621     294   17.15
29.626     274   16.54
29.631     286   16.91
29.636     266   16.31
29.641     275   16.59
29.646     277   16.65
29.651     274   16.56
29.656     290   17.02
29.661     263   16.21
29.666     263   16.23
29.671     284   16.86
29.676     279   16.70
29.681     283   16.81
29.686     285   16.87
29.691     288   16.98
29.696     280   16.73
29.701     287   16.95
29.706     293   17.11
29.711     287   16.93
29.716     292   17.08
29.721     306   17.49
29.726     302   17.38
29.731     307   17.52
29.736     311   17.64
29.741     311   17.63
29.746     333   18.24
29.751     333   18.25
29.756     314   17.71
29.761     316   17.77
29.766     310   17.60
29.771     329   18.15
29.776     311   17.62
29.781     319   17.86
29.786     320   17.88
29.791     308   17.54
29.796     318   17.82
29.801     316   17.79
29.806     313   17.70
29.811     298   17.26
29.816     290   17.04
29.821     289   17.00
29.826     283   16.82
29.831     307   17.52
29.836     294   17.14
29.841     292   17.08
29.846     296   17.22
29.851     289   17.01
29.856     288   16.98
29.861     290   17.02
29.866     287   16.95
29.871     283   16.82
29.876     288   16.96
29.881     297   17.22
29.886     283   16.81
29.891     292   17.08
29.896     283   16.82
29.901     303   17.42
29.906     294   17.14
29.911     291   17.05
29.916     283   16.84
29.921     297   17.22
29.926     300   17.33
29.931     297   17.23
29.936     304   17.43
29.941     300   17.32
29.946     306   17.49
29.951     302   17.39
29.956     302   17.37
29.961     301   17.36
29.966     296   17.21
29.971     299   17.29
29.976     309   17.58
29.981     310   17.60
29.986     307   17.52
29.991     311   17.63
29.996     297   17.23
END
